# author : Ric Davies
# source : Ric Davies
# date_created : 2017-11-20
# date_modified: 2025-06-16
# status: Manufacturer's estimate
# wavelength_unit : um
# changes :
# - 2022-03-17 (KL) Updated to match Ric Davies' email
# - 2023-06-06 (RD) Modified profiles after discussion with Schott
# - 2025-06-16 (FH) Updated filter curve based on Ric Davies' email.
#
 wavelength  transmission
   0.500000      0.000002
   0.501000      0.000000
   0.502000      0.000000
   0.503000      0.000000
   0.504000      0.000002
   0.505000      0.000053
   0.506000      0.000036
   0.507000      0.000493
   0.508000      0.000133
   0.509000      0.000025
   0.510000      0.000037
   0.511000      0.000746
   0.512000      0.000363
   0.513000      0.000246
   0.514000      0.000059
   0.515000      0.000182
   0.516000      0.000299
   0.517000      0.000358
   0.518000      0.000121
   0.519000      0.000057
   0.520000      0.000360
   0.521000      0.000257
   0.522000      0.000555
   0.523000      0.000714
   0.524000      0.000072
   0.525000      0.000005
   0.526000      0.000002
   0.527000      0.000002
   0.528000      0.000003
   0.529000      0.000001
   0.530000      0.000000
   0.531000      0.000001
   0.532000      0.000001
   0.533000      0.000001
   0.534000      0.000001
   0.535000      0.000002
   0.536000      0.000002
   0.537000      0.000001
   0.538000      0.000001
   0.539000      0.000001
   0.540000      0.000000
   0.541000      0.000000
   0.542000      0.000000
   0.543000      0.000000
   0.544000      0.000000
   0.545000      0.000000
   0.546000      0.000000
   0.547000      0.000000
   0.548000      0.000000
   0.549000      0.000000
   0.550000      0.000004
   0.551000      0.000019
   0.552000      0.000001
   0.553000      0.000000
   0.554000      0.000000
   0.555000      0.000000
   0.556000      0.000000
   0.557000      0.000001
   0.558000      0.000004
   0.559000      0.000007
   0.560000      0.000004
   0.561000      0.000005
   0.562000      0.000008
   0.563000      0.000001
   0.564000      0.000001
   0.565000      0.000004
   0.566000      0.000021
   0.567000      0.000011
   0.568000      0.000018
   0.569000      0.000012
   0.570000      0.000014
   0.571000      0.000001
   0.572000      0.000001
   0.573000      0.000001
   0.574000      0.000002
   0.575000      0.000007
   0.576000      0.000001
   0.577000      0.000000
   0.578000      0.000000
   0.579000      0.000000
   0.580000      0.000001
   0.581000      0.000000
   0.582000      0.000000
   0.583000      0.000000
   0.584000      0.000000
   0.585000      0.000000
   0.586000      0.000011
   0.587000      0.000006
   0.588000      0.000008
   0.589000      0.000002
   0.590000      0.000001
   0.591000      0.000000
   0.592000      0.000000
   0.593000      0.000001
   0.594000      0.000002
   0.595000      0.000013
   0.596000      0.000012
   0.597000      0.000011
   0.598000      0.000030
   0.599000      0.000885
   0.600000      0.000229
   0.601000      0.000152
   0.602000      0.000347
   0.603000      0.000258
   0.604000      0.000138
   0.605000      0.000155
   0.606000      0.000352
   0.607000      0.002076
   0.608000      0.007594
   0.609000      0.003013
   0.610000      0.003613
   0.611000      0.007352
   0.612000      0.009341
   0.613000      0.009810
   0.614000      0.009397
   0.615000      0.004362
   0.616000      0.002778
   0.617000      0.003635
   0.618000      0.010610
   0.619000      0.007021
   0.620000      0.002530
   0.621000      0.001948
   0.622000      0.002662
   0.623000      0.005409
   0.624000      0.011406
   0.625000      0.021435
   0.626000      0.012009
   0.627000      0.003228
   0.628000      0.001578
   0.629000      0.001376
   0.630000      0.002178
   0.631000      0.007589
   0.632000      0.011872
   0.633000      0.003649
   0.634000      0.002325
   0.635000      0.002353
   0.636000      0.003281
   0.637000      0.005741
   0.638000      0.004121
   0.639000      0.001444
   0.640000      0.000790
   0.641000      0.000733
   0.642000      0.001143
   0.643000      0.002356
   0.644000      0.002010
   0.645000      0.001010
   0.646000      0.000501
   0.647000      0.000265
   0.648000      0.000193
   0.649000      0.000243
   0.650000      0.000564
   0.651000      0.000209
   0.652000      0.000055
   0.653000      0.000027
   0.654000      0.000022
   0.655000      0.000028
   0.656000      0.000059
   0.657000      0.000192
   0.658000      0.000139
   0.659000      0.000069
   0.660000      0.000064
   0.661000      0.000113
   0.662000      0.000490
   0.663000      0.000642
   0.664000      0.000189
   0.665000      0.000139
   0.666000      0.000196
   0.667000      0.000521
   0.668000      0.001373
   0.669000      0.001011
   0.670000      0.001204
   0.671000      0.000944
   0.672000      0.000222
   0.673000      0.000092
   0.674000      0.000068
   0.675000      0.000088
   0.676000      0.000246
   0.677000      0.000336
   0.678000      0.000080
   0.679000      0.000042
   0.680000      0.000041
   0.681000      0.000047
   0.682000      0.000020
   0.683000      0.000006
   0.684000      0.000003
   0.685000      0.000002
   0.686000      0.000001
   0.687000      0.000001
   0.688000      0.000001
   0.689000      0.000001
   0.690000      0.000001
   0.691000      0.000001
   0.692000      0.000001
   0.693000      0.000001
   0.694000      0.000001
   0.695000      0.000001
   0.696000      0.000001
   0.697000      0.000001
   0.698000      0.000002
   0.699000      0.000003
   0.700000      0.000003
   0.701000      0.000003
   0.702000      0.000002
   0.703000      0.000003
   0.704000      0.000004
   0.705000      0.000010
   0.706000      0.000025
   0.707000      0.000030
   0.708000      0.000024
   0.709000      0.000026
   0.710000      0.000038
   0.711000      0.000064
   0.712000      0.000092
   0.713000      0.000102
   0.714000      0.000061
   0.715000      0.000024
   0.716000      0.000011
   0.717000      0.000007
   0.718000      0.000006
   0.719000      0.000006
   0.720000      0.000007
   0.721000      0.000009
   0.722000      0.000010
   0.723000      0.000010
   0.724000      0.000008
   0.725000      0.000006
   0.726000      0.000004
   0.727000      0.000002
   0.728000      0.000001
   0.729000      0.000001
   0.730000      0.000001
   0.731000      0.000001
   0.732000      0.000001
   0.733000      0.000002
   0.734000      0.000003
   0.735000      0.000007
   0.736000      0.000016
   0.737000      0.000021
   0.738000      0.000019
   0.739000      0.000018
   0.740000      0.000020
   0.741000      0.000019
   0.742000      0.000012
   0.743000      0.000006
   0.744000      0.000004
   0.745000      0.000003
   0.746000      0.000002
   0.747000      0.000002
   0.748000      0.000003
   0.749000      0.000004
   0.750000      0.000007
   0.751000      0.000014
   0.752000      0.000027
   0.753000      0.000034
   0.754000      0.000034
   0.755000      0.000031
   0.756000      0.000021
   0.757000      0.000011
   0.758000      0.000007
   0.759000      0.000005
   0.760000      0.000004
   0.761000      0.000005
   0.762000      0.000006
   0.763000      0.000007
   0.764000      0.000007
   0.765000      0.000006
   0.766000      0.000006
   0.767000      0.000006
   0.768000      0.000006
   0.769000      0.000008
   0.770000      0.000008
   0.771000      0.000006
   0.772000      0.000005
   0.773000      0.000004
   0.774000      0.000004
   0.775000      0.000005
   0.776000      0.000006
   0.777000      0.000006
   0.778000      0.000005
   0.779000      0.000005
   0.780000      0.000006
   0.781000      0.000007
   0.782000      0.000008
   0.783000      0.000006
   0.784000      0.000004
   0.785000      0.000003
   0.786000      0.000003
   0.787000      0.000003
   0.788000      0.000005
   0.789000      0.000007
   0.790000      0.000009
   0.791000      0.000007
   0.792000      0.000006
   0.793000      0.000006
   0.794000      0.000009
   0.795000      0.000013
   0.796000      0.000010
   0.797000      0.000005
   0.798000      0.000003
   0.799000      0.000002
   0.800000      0.000002
   0.801000      0.000003
   0.802000      0.000004
   0.803000      0.000003
   0.804000      0.000002
   0.805000      0.000002
   0.806000      0.000001
   0.807000      0.000001
   0.808000      0.000002
   0.809000      0.000003
   0.810000      0.000003
   0.811000      0.000002
   0.812000      0.000002
   0.813000      0.000001
   0.814000      0.000001
   0.815000      0.000002
   0.816000      0.000002
   0.817000      0.000002
   0.818000      0.000001
   0.819000      0.000001
   0.820000      0.000001
   0.821000      0.000001
   0.822000      0.000002
   0.823000      0.000003
   0.824000      0.000003
   0.825000      0.000002
   0.826000      0.000001
   0.827000      0.000001
   0.828000      0.000001
   0.829000      0.000002
   0.830000      0.000001
   0.831000      0.000001
   0.832000      0.000000
   0.833000      0.000000
   0.834000      0.000000
   0.835000      0.000000
   0.836000      0.000000
   0.837000      0.000000
   0.838000      0.000000
   0.839000      0.000000
   0.840000      0.000000
   0.841000      0.000000
   0.842000      0.000000
   0.843000      0.000000
   0.844000      0.000000
   0.845000      0.000000
   0.846000      0.000000
   0.847000      0.000000
   0.848000      0.000000
   0.849000      0.000000
   0.850000      0.000000
   0.851000      0.000000
   0.852000      0.000000
   0.853000      0.000000
   0.854000      0.000000
   0.855000      0.000000
   0.856000      0.000000
   0.857000      0.000000
   0.858000      0.000000
   0.859000      0.000000
   0.860000      0.000000
   0.861000      0.000000
   0.862000      0.000000
   0.863000      0.000000
   0.864000      0.000000
   0.865000      0.000000
   0.866000      0.000000
   0.867000      0.000000
   0.868000      0.000000
   0.869000      0.000000
   0.870000      0.000000
   0.871000      0.000000
   0.872000      0.000000
   0.873000      0.000000
   0.874000      0.000000
   0.875000      0.000000
   0.876000      0.000000
   0.877000      0.000000
   0.878000      0.000000
   0.879000      0.000000
   0.880000      0.000000
   0.881000      0.000000
   0.882000      0.000000
   0.883000      0.000000
   0.884000      0.000000
   0.885000      0.000000
   0.886000      0.000000
   0.887000      0.000000
   0.888000      0.000000
   0.889000      0.000000
   0.890000      0.000000
   0.891000      0.000000
   0.892000      0.000000
   0.893000      0.000000
   0.894000      0.000000
   0.895000      0.000000
   0.896000      0.000000
   0.897000      0.000000
   0.898000      0.000000
   0.899000      0.000000
   0.900000      0.000000
   0.901000      0.000000
   0.902000      0.000000
   0.903000      0.000000
   0.904000      0.000000
   0.905000      0.000000
   0.906000      0.000000
   0.907000      0.000000
   0.908000      0.000000
   0.909000      0.000000
   0.910000      0.000000
   0.911000      0.000000
   0.912000      0.000000
   0.913000      0.000000
   0.914000      0.000000
   0.915000      0.000000
   0.916000      0.000000
   0.917000      0.000000
   0.918000      0.000000
   0.919000      0.000000
   0.920000      0.000000
   0.921000      0.000000
   0.922000      0.000000
   0.923000      0.000000
   0.924000      0.000000
   0.925000      0.000000
   0.926000      0.000000
   0.927000      0.000000
   0.928000      0.000000
   0.929000      0.000000
   0.930000      0.000000
   0.931000      0.000000
   0.932000      0.000000
   0.933000      0.000000
   0.934000      0.000000
   0.935000      0.000000
   0.936000      0.000000
   0.937000      0.000000
   0.938000      0.000000
   0.939000      0.000000
   0.940000      0.000000
   0.941000      0.000000
   0.942000      0.000000
   0.943000      0.000000
   0.944000      0.000000
   0.945000      0.000000
   0.946000      0.000000
   0.947000      0.000000
   0.948000      0.000000
   0.949000      0.000000
   0.950000      0.000000
   0.951000      0.000000
   0.952000      0.000000
   0.953000      0.000000
   0.954000      0.000000
   0.955000      0.000000
   0.956000      0.000000
   0.957000      0.000000
   0.958000      0.000000
   0.959000      0.000000
   0.960000      0.000000
   0.961000      0.000000
   0.962000      0.000000
   0.963000      0.000000
   0.964000      0.000000
   0.965000      0.000000
   0.966000      0.000000
   0.967000      0.000000
   0.968000      0.000000
   0.969000      0.000000
   0.970000      0.000000
   0.971000      0.000000
   0.972000      0.000000
   0.973000      0.000000
   0.974000      0.000000
   0.975000      0.000000
   0.976000      0.000000
   0.977000      0.000000
   0.978000      0.000000
   0.979000      0.000000
   0.980000      0.000000
   0.981000      0.000000
   0.982000      0.000000
   0.983000      0.000000
   0.984000      0.000000
   0.985000      0.000001
   0.986000      0.000001
   0.987000      0.000001
   0.988000      0.000002
   0.989000      0.000003
   0.990000      0.000004
   0.991000      0.000003
   0.992000      0.000003
   0.993000      0.000003
   0.994000      0.000002
   0.995000      0.000002
   0.996000      0.000001
   0.997000      0.000001
   0.998000      0.000001
   0.999000      0.000001
   1.000000      0.000001
   1.001000      0.000001
   1.002000      0.000001
   1.003000      0.000001
   1.004000      0.000001
   1.005000      0.000001
   1.006000      0.000001
   1.007000      0.000001
   1.008000      0.000001
   1.009000      0.000001
   1.010000      0.000001
   1.011000      0.000001
   1.012000      0.000001
   1.013000      0.000000
   1.014000      0.000000
   1.015000      0.000000
   1.016000      0.000000
   1.017000      0.000000
   1.018000      0.000000
   1.019000      0.000000
   1.020000      0.000000
   1.021000      0.000000
   1.022000      0.000000
   1.023000      0.000000
   1.024000      0.000000
   1.025000      0.000000
   1.026000      0.000000
   1.027000      0.000000
   1.028000      0.000000
   1.029000      0.000000
   1.030000      0.000000
   1.031000      0.000000
   1.032000      0.000000
   1.033000      0.000000
   1.034000      0.000000
   1.035000      0.000000
   1.036000      0.000000
   1.037000      0.000001
   1.038000      0.000001
   1.039000      0.000001
   1.040000      0.000001
   1.041000      0.000001
   1.042000      0.000001
   1.043000      0.000001
   1.044000      0.000001
   1.045000      0.000001
   1.046000      0.000001
   1.047000      0.000001
   1.048000      0.000001
   1.049000      0.000001
   1.050000      0.000001
   1.051000      0.000001
   1.052000      0.000001
   1.053000      0.000001
   1.054000      0.000001
   1.055000      0.000001
   1.056000      0.000001
   1.057000      0.000001
   1.058000      0.000001
   1.059000      0.000002
   1.060000      0.000002
   1.061000      0.000002
   1.062000      0.000002
   1.063000      0.000002
   1.064000      0.000002
   1.065000      0.000003
   1.066000      0.000003
   1.067000      0.000003
   1.068000      0.000003
   1.069000      0.000004
   1.070000      0.000004
   1.071000      0.000005
   1.072000      0.000006
   1.073000      0.000006
   1.074000      0.000007
   1.075000      0.000009
   1.076000      0.000010
   1.077000      0.000012
   1.078000      0.000014
   1.079000      0.000017
   1.080000      0.000021
   1.081000      0.000025
   1.082000      0.000031
   1.083000      0.000038
   1.084000      0.000046
   1.085000      0.000055
   1.086000      0.000062
   1.087000      0.000066
   1.088000      0.000065
   1.089000      0.000061
   1.090000      0.000055
   1.091000      0.000047
   1.092000      0.000041
   1.093000      0.000035
   1.094000      0.000030
   1.095000      0.000026
   1.096000      0.000023
   1.097000      0.000021
   1.098000      0.000018
   1.099000      0.000016
   1.100000      0.000015
   1.101000      0.000013
   1.102000      0.000012
   1.103000      0.000011
   1.104000      0.000010
   1.105000      0.000010
   1.106000      0.000009
   1.107000      0.000008
   1.108000      0.000008
   1.109000      0.000007
   1.110000      0.000007
   1.111000      0.000007
   1.112000      0.000006
   1.113000      0.000006
   1.114000      0.000005
   1.115000      0.000005
   1.116000      0.000005
   1.117000      0.000005
   1.118000      0.000005
   1.119000      0.000005
   1.120000      0.000005
   1.121000      0.000005
   1.122000      0.000005
   1.123000      0.000005
   1.124000      0.000005
   1.125000      0.000005
   1.126000      0.000005
   1.127000      0.000004
   1.128000      0.000004
   1.129000      0.000004
   1.130000      0.000004
   1.131000      0.000004
   1.132000      0.000004
   1.133000      0.000004
   1.134000      0.000004
   1.135000      0.000005
   1.136000      0.000005
   1.137000      0.000005
   1.138000      0.000005
   1.139000      0.000005
   1.140000      0.000005
   1.141000      0.000005
   1.142000      0.000005
   1.143000      0.000005
   1.144000      0.000005
   1.145000      0.000005
   1.146000      0.000005
   1.147000      0.000005
   1.148000      0.000005
   1.149000      0.000005
   1.150000      0.000004
   1.151000      0.000004
   1.152000      0.000004
   1.153000      0.000004
   1.154000      0.000004
   1.155000      0.000004
   1.156000      0.000004
   1.157000      0.000005
   1.158000      0.000005
   1.159000      0.000006
   1.160000      0.000006
   1.161000      0.000006
   1.162000      0.000006
   1.163000      0.000006
   1.164000      0.000006
   1.165000      0.000005
   1.166000      0.000006
   1.167000      0.000006
   1.168000      0.000007
   1.169000      0.000008
   1.170000      0.000009
   1.171000      0.000008
   1.172000      0.000005
   1.173000      0.000003
   1.174000      0.000002
   1.175000      0.000002
   1.176000      0.000001
   1.177000      0.000001
   1.178000      0.000001
   1.179000      0.000001
   1.180000      0.000001
   1.181000      0.000001
   1.182000      0.000001
   1.183000      0.000002
   1.184000      0.000002
   1.185000      0.000002
   1.186000      0.000001
   1.187000      0.000000
   1.188000      0.000000
   1.189000      0.000000
   1.190000      0.000000
   1.191000      0.000000
   1.192000      0.000000
   1.193000      0.000000
   1.194000      0.000000
   1.195000      0.000000
   1.196000      0.000000
   1.197000      0.000000
   1.198000      0.000000
   1.199000      0.000000
   1.200000      0.000000
   1.201000      0.000000
   1.202000      0.000000
   1.203000      0.000000
   1.204000      0.000000
   1.205000      0.000000
   1.206000      0.000000
   1.207000      0.000000
   1.208000      0.000000
   1.209000      0.000000
   1.210000      0.000000
   1.211000      0.000000
   1.212000      0.000000
   1.213000      0.000000
   1.214000      0.000000
   1.215000      0.000000
   1.216000      0.000000
   1.217000      0.000000
   1.218000      0.000000
   1.219000      0.000000
   1.220000      0.000000
   1.221000      0.000000
   1.222000      0.000000
   1.223000      0.000000
   1.224000      0.000000
   1.225000      0.000000
   1.226000      0.000000
   1.227000      0.000000
   1.228000      0.000000
   1.229000      0.000000
   1.230000      0.000000
   1.231000      0.000001
   1.232000      0.000001
   1.233000      0.000000
   1.234000      0.000000
   1.235000      0.000000
   1.236000      0.000000
   1.237000      0.000000
   1.238000      0.000000
   1.239000      0.000000
   1.240000      0.000000
   1.241000      0.000000
   1.242000      0.000000
   1.243000      0.000000
   1.244000      0.000000
   1.245000      0.000000
   1.246000      0.000000
   1.247000      0.000000
   1.248000      0.000000
   1.249000      0.000000
   1.250000      0.000001
   1.251000      0.000001
   1.252000      0.000000
   1.253000      0.000000
   1.254000      0.000000
   1.255000      0.000000
   1.256000      0.000000
   1.257000      0.000000
   1.258000      0.000000
   1.259000      0.000000
   1.260000      0.000000
   1.261000      0.000000
   1.262000      0.000000
   1.263000      0.000000
   1.264000      0.000000
   1.265000      0.000000
   1.266000      0.000000
   1.267000      0.000000
   1.268000      0.000000
   1.269000      0.000000
   1.270000      0.000000
   1.271000      0.000000
   1.272000      0.000000
   1.273000      0.000000
   1.274000      0.000000
   1.275000      0.000000
   1.276000      0.000000
   1.277000      0.000000
   1.278000      0.000000
   1.279000      0.000000
   1.280000      0.000000
   1.281000      0.000000
   1.282000      0.000000
   1.283000      0.000000
   1.284000      0.000000
   1.285000      0.000000
   1.286000      0.000000
   1.287000      0.000000
   1.288000      0.000000
   1.289000      0.000000
   1.290000      0.000000
   1.291000      0.000000
   1.292000      0.000000
   1.293000      0.000000
   1.294000      0.000000
   1.295000      0.000000
   1.296000      0.000000
   1.297000      0.000000
   1.298000      0.000000
   1.299000      0.000000
   1.300000      0.000000
   1.301000      0.000000
   1.302000      0.000000
   1.303000      0.000000
   1.304000      0.000000
   1.305000      0.000000
   1.306000      0.000000
   1.307000      0.000000
   1.308000      0.000000
   1.309000      0.000000
   1.310000      0.000000
   1.311000      0.000000
   1.312000      0.000000
   1.313000      0.000000
   1.314000      0.000000
   1.315000      0.000000
   1.316000      0.000000
   1.317000      0.000000
   1.318000      0.000000
   1.319000      0.000000
   1.320000      0.000000
   1.321000      0.000000
   1.322000      0.000000
   1.323000      0.000000
   1.324000      0.000000
   1.325000      0.000000
   1.326000      0.000000
   1.327000      0.000000
   1.328000      0.000000
   1.329000      0.000000
   1.330000      0.000000
   1.331000      0.000000
   1.332000      0.000000
   1.333000      0.000000
   1.334000      0.000000
   1.335000      0.000000
   1.336000      0.000000
   1.337000      0.000000
   1.338000      0.000000
   1.339000      0.000000
   1.340000      0.000000
   1.341000      0.000000
   1.342000      0.000000
   1.343000      0.000000
   1.344000      0.000000
   1.345000      0.000000
   1.346000      0.000000
   1.347000      0.000000
   1.348000      0.000000
   1.349000      0.000000
   1.350000      0.000000
   1.351000      0.000000
   1.352000      0.000000
   1.353000      0.000000
   1.354000      0.000000
   1.355000      0.000000
   1.356000      0.000000
   1.357000      0.000000
   1.358000      0.000000
   1.359000      0.000000
   1.360000      0.000000
   1.361000      0.000000
   1.362000      0.000000
   1.363000      0.000000
   1.364000      0.000000
   1.365000      0.000000
   1.366000      0.000000
   1.367000      0.000001
   1.368000      0.000001
   1.369000      0.000001
   1.370000      0.000002
   1.371000      0.000004
   1.372000      0.000008
   1.373000      0.000019
   1.374000      0.000042
   1.375000      0.000031
   1.376000      0.000015
   1.377000      0.000008
   1.378000      0.000006
   1.379000      0.000004
   1.380000      0.000004
   1.381000      0.000003
   1.382000      0.000003
   1.383000      0.000003
   1.384000      0.000003
   1.385000      0.000003
   1.386000      0.000003
   1.387000      0.000004
   1.388000      0.000005
   1.389000      0.000006
   1.390000      0.000007
   1.391000      0.000010
   1.392000      0.000013
   1.393000      0.000016
   1.394000      0.000020
   1.395000      0.000021
   1.396000      0.000019
   1.397000      0.000016
   1.398000      0.000013
   1.399000      0.000011
   1.400000      0.000010
   1.401000      0.000008
   1.402000      0.000008
   1.403000      0.000007
   1.404000      0.000007
   1.405000      0.000007
   1.406000      0.000007
   1.407000      0.000008
   1.408000      0.000009
   1.409000      0.000010
   1.410000      0.000012
   1.411000      0.000015
   1.412000      0.000019
   1.413000      0.000025
   1.414000      0.000033
   1.415000      0.000040
   1.416000      0.000040
   1.417000      0.000034
   1.418000      0.000026
   1.419000      0.000019
   1.420000      0.000014
   1.421000      0.000011
   1.422000      0.000009
   1.423000      0.000007
   1.424000      0.000006
   1.425000      0.000005
   1.426000      0.000005
   1.427000      0.000004
   1.428000      0.000004
   1.429000      0.000004
   1.430000      0.000003
   1.431000      0.000003
   1.432000      0.000003
   1.433000      0.000003
   1.434000      0.000003
   1.435000      0.000004
   1.436000      0.000004
   1.437000      0.000004
   1.438000      0.000004
   1.439000      0.000005
   1.440000      0.000005
   1.441000      0.000006
   1.442000      0.000006
   1.443000      0.000007
   1.444000      0.000008
   1.445000      0.000010
   1.446000      0.000011
   1.447000      0.000013
   1.448000      0.000015
   1.449000      0.000017
   1.450000      0.000019
   1.451000      0.000021
   1.452000      0.000022
   1.453000      0.000023
   1.454000      0.000023
   1.455000      0.000023
   1.456000      0.000022
   1.457000      0.000021
   1.458000      0.000020
   1.459000      0.000019
   1.460000      0.000018
   1.461000      0.000017
   1.462000      0.000017
   1.463000      0.000016
   1.464000      0.000016
   1.465000      0.000016
   1.466000      0.000016
   1.467000      0.000017
   1.468000      0.000017
   1.469000      0.000018
   1.470000      0.000018
   1.471000      0.000019
   1.472000      0.000021
   1.473000      0.000022
   1.474000      0.000024
   1.475000      0.000026
   1.476000      0.000029
   1.477000      0.000032
   1.478000      0.000036
   1.479000      0.000041
   1.480000      0.000046
   1.481000      0.000053
   1.482000      0.000061
   1.483000      0.000071
   1.484000      0.000084
   1.485000      0.000099
   1.486000      0.000118
   1.487000      0.000143
   1.488000      0.000174
   1.489000      0.000213
   1.490000      0.000264
   1.491000      0.000330
   1.492000      0.000417
   1.493000      0.000532
   1.494000      0.000686
   1.495000      0.000894
   1.496000      0.001180
   1.497000      0.001577
   1.498000      0.002134
   1.499000      0.002928
   1.500000      0.004077
   1.501000      0.005766
   1.502000      0.008290
   1.503000      0.012131
   1.504000      0.018090
   1.505000      0.027513
   1.506000      0.042695
   1.507000      0.067545
   1.508000      0.108561
   1.509000      0.175748
   1.510000      0.281599
   1.511000      0.433518
   1.512000      0.617292
   1.513000      0.789794
   1.514000      0.908584
   1.515000      0.966992
   1.516000      0.985780
   1.517000      0.987156
   1.518000      0.984184
   1.519000      0.982169
   1.520000      0.982219
   1.521000      0.983716
   1.522000      0.985639
   1.523000      0.987164
   1.524000      0.987874
   1.525000      0.987734
   1.526000      0.986971
   1.527000      0.985924
   1.528000      0.984922
   1.529000      0.984206
   1.530000      0.983898
   1.531000      0.984005
   1.532000      0.984445
   1.533000      0.985081
   1.534000      0.985762
   1.535000      0.986352
   1.536000      0.986752
   1.537000      0.986915
   1.538000      0.986841
   1.539000      0.986572
   1.540000      0.986179
   1.541000      0.985742
   1.542000      0.985342
   1.543000      0.985042
   1.544000      0.984883
   1.545000      0.984879
   1.546000      0.985021
   1.547000      0.985276
   1.548000      0.985601
   1.549000      0.985943
   1.550000      0.986252
   1.551000      0.986488
   1.552000      0.986620
   1.553000      0.986636
   1.554000      0.986540
   1.555000      0.986351
   1.556000      0.986098
   1.557000      0.985818
   1.558000      0.985550
   1.559000      0.985330
   1.560000      0.985186
   1.561000      0.985138
   1.562000      0.985194
   1.563000      0.985350
   1.564000      0.985592
   1.565000      0.985897
   1.566000      0.986237
   1.567000      0.986580
   1.568000      0.986896
   1.569000      0.987160
   1.570000      0.987351
   1.571000      0.987457
   1.572000      0.987475
   1.573000      0.987412
   1.574000      0.987280
   1.575000      0.987099
   1.576000      0.986894
   1.577000      0.986688
   1.578000      0.986507
   1.579000      0.986370
   1.580000      0.986295
   1.581000      0.986290
   1.582000      0.986358
   1.583000      0.986497
   1.584000      0.986694
   1.585000      0.986936
   1.586000      0.987203
   1.587000      0.987474
   1.588000      0.987728
   1.589000      0.987947
   1.590000      0.988113
   1.591000      0.988216
   1.592000      0.988250
   1.593000      0.988214
   1.594000      0.988114
   1.595000      0.987960
   1.596000      0.987765
   1.597000      0.987546
   1.598000      0.987322
   1.599000      0.987110
   1.600000      0.986926
   1.601000      0.986784
   1.602000      0.986693
   1.603000      0.986659
   1.604000      0.986681
   1.605000      0.986758
   1.606000      0.986879
   1.607000      0.987035
   1.608000      0.987212
   1.609000      0.987394
   1.610000      0.987567
   1.611000      0.987715
   1.612000      0.987826
   1.613000      0.987892
   1.614000      0.987905
   1.615000      0.987863
   1.616000      0.987769
   1.617000      0.987626
   1.618000      0.987445
   1.619000      0.987236
   1.620000      0.987011
   1.621000      0.986785
   1.622000      0.986572
   1.623000      0.986383
   1.624000      0.986229
   1.625000      0.986119
   1.626000      0.986058
   1.627000      0.986048
   1.628000      0.986087
   1.629000      0.986171
   1.630000      0.986293
   1.631000      0.986443
   1.632000      0.986611
   1.633000      0.986784
   1.634000      0.986951
   1.635000      0.987100
   1.636000      0.987222
   1.637000      0.987307
   1.638000      0.987352
   1.639000      0.987353
   1.640000      0.987310
   1.641000      0.987226
   1.642000      0.987106
   1.643000      0.986957
   1.644000      0.986788
   1.645000      0.986610
   1.646000      0.986432
   1.647000      0.986266
   1.648000      0.986119
   1.649000      0.986001
   1.650000      0.985918
   1.651000      0.985873
   1.652000      0.985870
   1.653000      0.985906
   1.654000      0.985981
   1.655000      0.986090
   1.656000      0.986226
   1.657000      0.986382
   1.658000      0.986549
   1.659000      0.986720
   1.660000      0.986885
   1.661000      0.987037
   1.662000      0.987170
   1.663000      0.987277
   1.664000      0.987356
   1.665000      0.987404
   1.666000      0.987422
   1.667000      0.987412
   1.668000      0.987376
   1.669000      0.987320
   1.670000      0.987249
   1.671000      0.987171
   1.672000      0.987092
   1.673000      0.987018
   1.674000      0.986956
   1.675000      0.986912
   1.676000      0.986890
   1.677000      0.986893
   1.678000      0.986922
   1.679000      0.986978
   1.680000      0.987059
   1.681000      0.987163
   1.682000      0.987285
   1.683000      0.987421
   1.684000      0.987565
   1.685000      0.987711
   1.686000      0.987854
   1.687000      0.987988
   1.688000      0.988108
   1.689000      0.988209
   1.690000      0.988288
   1.691000      0.988343
   1.692000      0.988374
   1.693000      0.988381
   1.694000      0.988364
   1.695000      0.988327
   1.696000      0.988274
   1.697000      0.988208
   1.698000      0.988135
   1.699000      0.988059
   1.700000      0.987984
   1.701000      0.987917
   1.702000      0.987859
   1.703000      0.987816
   1.704000      0.987789
   1.705000      0.987779
   1.706000      0.987788
   1.707000      0.987814
   1.708000      0.987856
   1.709000      0.987912
   1.710000      0.987979
   1.711000      0.988053
   1.712000      0.988129
   1.713000      0.988205
   1.714000      0.988274
   1.715000      0.988335
   1.716000      0.988383
   1.717000      0.988416
   1.718000      0.988431
   1.719000      0.988428
   1.720000      0.988405
   1.721000      0.988363
   1.722000      0.988304
   1.723000      0.988229
   1.724000      0.988141
   1.725000      0.988043
   1.726000      0.987939
   1.727000      0.987832
   1.728000      0.987725
   1.729000      0.987623
   1.730000      0.987529
   1.731000      0.987444
   1.732000      0.987371
   1.733000      0.987312
   1.734000      0.987267
   1.735000      0.987236
   1.736000      0.987219
   1.737000      0.987214
   1.738000      0.987220
   1.739000      0.987234
   1.740000      0.987253
   1.741000      0.987275
   1.742000      0.987296
   1.743000      0.987314
   1.744000      0.987325
   1.745000      0.987329
   1.746000      0.987322
   1.747000      0.987303
   1.748000      0.987272
   1.749000      0.987228
   1.750000      0.987171
   1.751000      0.987103
   1.752000      0.987025
   1.753000      0.986939
   1.754000      0.986847
   1.755000      0.986751
   1.756000      0.986655
   1.757000      0.986562
   1.758000      0.986473
   1.759000      0.986391
   1.760000      0.986320
   1.761000      0.986259
   1.762000      0.986212
   1.763000      0.986178
   1.764000      0.986158
   1.765000      0.986151
   1.766000      0.986159
   1.767000      0.986178
   1.768000      0.986208
   1.769000      0.986246
   1.770000      0.986292
   1.771000      0.986342
   1.772000      0.986394
   1.773000      0.986446
   1.774000      0.986495
   1.775000      0.986541
   1.776000      0.986581
   1.777000      0.986614
   1.778000      0.986639
   1.779000      0.986656
   1.780000      0.986664
   1.781000      0.986665
   1.782000      0.986659
   1.783000      0.986647
   1.784000      0.986630
   1.785000      0.986611
   1.786000      0.986590
   1.787000      0.986571
   1.788000      0.986554
   1.789000      0.986542
   1.790000      0.986537
   1.791000      0.986538
   1.792000      0.986549
   1.793000      0.986569
   1.794000      0.986599
   1.795000      0.986640
   1.796000      0.986690
   1.797000      0.986749
   1.798000      0.986816
   1.799000      0.986891
   1.800000      0.986971
   1.801000      0.987056
   1.802000      0.987142
   1.803000      0.987229
   1.804000      0.987316
   1.805000      0.987399
   1.806000      0.987478
   1.807000      0.987552
   1.808000      0.987619
   1.809000      0.987679
   1.810000      0.987732
   1.811000      0.987777
   1.812000      0.987814
   1.813000      0.987845
   1.814000      0.987870
   1.815000      0.987889
   1.816000      0.987905
   1.817000      0.987918
   1.818000      0.987930
   1.819000      0.987942
   1.820000      0.987955
   1.821000      0.987972
   1.822000      0.987992
   1.823000      0.988018
   1.824000      0.988049
   1.825000      0.988086
   1.826000      0.988129
   1.827000      0.988178
   1.828000      0.988234
   1.829000      0.988294
   1.830000      0.988359
   1.831000      0.988427
   1.832000      0.988497
   1.833000      0.988568
   1.834000      0.988638
   1.835000      0.988705
   1.836000      0.988769
   1.837000      0.988828
   1.838000      0.988881
   1.839000      0.988926
   1.840000      0.988963
   1.841000      0.988991
   1.842000      0.989010
   1.843000      0.989020
   1.844000      0.989020
   1.845000      0.989012
   1.846000      0.988995
   1.847000      0.988970
   1.848000      0.988939
   1.849000      0.988903
   1.850000      0.988862
   1.851000      0.988819
   1.852000      0.988773
   1.853000      0.988728
   1.854000      0.988683
   1.855000      0.988640
   1.856000      0.988600
   1.857000      0.988563
   1.858000      0.988530
   1.859000      0.988501
   1.860000      0.988477
   1.861000      0.988457
   1.862000      0.988441
   1.863000      0.988428
   1.864000      0.988417
   1.865000      0.988409
   1.866000      0.988401
   1.867000      0.988392
   1.868000      0.988382
   1.869000      0.988370
   1.870000      0.988353
   1.871000      0.988332
   1.872000      0.988306
   1.873000      0.988273
   1.874000      0.988234
   1.875000      0.988187
   1.876000      0.988133
   1.877000      0.988071
   1.878000      0.988003
   1.879000      0.987927
   1.880000      0.987846
   1.881000      0.987759
   1.882000      0.987668
   1.883000      0.987574
   1.884000      0.987477
   1.885000      0.987380
   1.886000      0.987283
   1.887000      0.987186
   1.888000      0.987093
   1.889000      0.987002
   1.890000      0.986916
   1.891000      0.986835
   1.892000      0.986760
   1.893000      0.986690
   1.894000      0.986626
   1.895000      0.986569
   1.896000      0.986517
   1.897000      0.986471
   1.898000      0.986430
   1.899000      0.986394
   1.900000      0.986360
   1.901000      0.986330
   1.902000      0.986301
   1.903000      0.986273
   1.904000      0.986245
   1.905000      0.986216
   1.906000      0.986184
   1.907000      0.986150
   1.908000      0.986112
   1.909000      0.986071
   1.910000      0.986025
   1.911000      0.985974
   1.912000      0.985919
   1.913000      0.985859
   1.914000      0.985795
   1.915000      0.985728
   1.916000      0.985657
   1.917000      0.985585
   1.918000      0.985511
   1.919000      0.985436
   1.920000      0.985362
   1.921000      0.985290
   1.922000      0.985221
   1.923000      0.985155
   1.924000      0.985094
   1.925000      0.985038
   1.926000      0.984988
   1.927000      0.984946
   1.928000      0.984910
   1.929000      0.984882
   1.930000      0.984862
   1.931000      0.984850
   1.932000      0.984846
   1.933000      0.984849
   1.934000      0.984859
   1.935000      0.984875
   1.936000      0.984897
   1.937000      0.984923
   1.938000      0.984954
   1.939000      0.984987
   1.940000      0.985023
   1.941000      0.985060
   1.942000      0.985098
   1.943000      0.985135
   1.944000      0.985171
   1.945000      0.985205
   1.946000      0.985237
   1.947000      0.985267
   1.948000      0.985294
   1.949000      0.985318
   1.950000      0.985339
   1.951000      0.985357
   1.952000      0.985373
   1.953000      0.985387
   1.954000      0.985400
   1.955000      0.985412
   1.956000      0.985424
   1.957000      0.985437
   1.958000      0.985452
   1.959000      0.985468
   1.960000      0.985488
   1.961000      0.985512
   1.962000      0.985540
   1.963000      0.985573
   1.964000      0.985611
   1.965000      0.985655
   1.966000      0.985705
   1.967000      0.985762
   1.968000      0.985824
   1.969000      0.985892
   1.970000      0.985965
   1.971000      0.986044
   1.972000      0.986127
   1.973000      0.986214
   1.974000      0.986304
   1.975000      0.986397
   1.976000      0.986491
   1.977000      0.986585
   1.978000      0.986680
   1.979000      0.986774
   1.980000      0.986865
   1.981000      0.986955
   1.982000      0.987041
   1.983000      0.987123
   1.984000      0.987201
   1.985000      0.987275
   1.986000      0.987344
   1.987000      0.987408
   1.988000      0.987467
   1.989000      0.987521
   1.990000      0.987572
   1.991000      0.987618
   1.992000      0.987661
   1.993000      0.987701
   1.994000      0.987738
   1.995000      0.987774
   1.996000      0.987809
   1.997000      0.987844
   1.998000      0.987879
   1.999000      0.987915
   2.000000      0.987954
   2.001000      0.987994
   2.002000      0.988037
   2.003000      0.988084
   2.004000      0.988134
   2.005000      0.988187
   2.006000      0.988244
   2.007000      0.988305
   2.008000      0.988369
   2.009000      0.988436
   2.010000      0.988505
   2.011000      0.988577
   2.012000      0.988650
   2.013000      0.988724
   2.014000      0.988797
   2.015000      0.988871
   2.016000      0.988942
   2.017000      0.989011
   2.018000      0.989077
   2.019000      0.989140
   2.020000      0.989198
   2.021000      0.989250
   2.022000      0.989297
   2.023000      0.989338
   2.024000      0.989373
   2.025000      0.989401
   2.026000      0.989422
   2.027000      0.989436
   2.028000      0.989444
   2.029000      0.989445
   2.030000      0.989441
   2.031000      0.989430
   2.032000      0.989415
   2.033000      0.989395
   2.034000      0.989371
   2.035000      0.989344
   2.036000      0.989315
   2.037000      0.989283
   2.038000      0.989251
   2.039000      0.989218
   2.040000      0.989186
   2.041000      0.989154
   2.042000      0.989123
   2.043000      0.989095
   2.044000      0.989068
   2.045000      0.989043
   2.046000      0.989021
   2.047000      0.989001
   2.048000      0.988984
   2.049000      0.988968
   2.050000      0.988955
   2.051000      0.988943
   2.052000      0.988931
   2.053000      0.988921
   2.054000      0.988910
   2.055000      0.988899
   2.056000      0.988886
   2.057000      0.988871
   2.058000      0.988854
   2.059000      0.988834
   2.060000      0.988810
   2.061000      0.988782
   2.062000      0.988749
   2.063000      0.988711
   2.064000      0.988668
   2.065000      0.988619
   2.066000      0.988565
   2.067000      0.988506
   2.068000      0.988441
   2.069000      0.988371
   2.070000      0.988297
   2.071000      0.988217
   2.072000      0.988134
   2.073000      0.988048
   2.074000      0.987959
   2.075000      0.987868
   2.076000      0.987776
   2.077000      0.987683
   2.078000      0.987590
   2.079000      0.987499
   2.080000      0.987408
   2.081000      0.987320
   2.082000      0.987235
   2.083000      0.987153
   2.084000      0.987074
   2.085000      0.987000
   2.086000      0.986930
   2.087000      0.986865
   2.088000      0.986804
   2.089000      0.986747
   2.090000      0.986695
   2.091000      0.986647
   2.092000      0.986603
   2.093000      0.986562
   2.094000      0.986525
   2.095000      0.986490
   2.096000      0.986456
   2.097000      0.986424
   2.098000      0.986393
   2.099000      0.986361
   2.100000      0.986330
   2.101000      0.986297
   2.102000      0.986262
   2.103000      0.986225
   2.104000      0.986186
   2.105000      0.986144
   2.106000      0.986098
   2.107000      0.986050
   2.108000      0.985997
   2.109000      0.985942
   2.110000      0.985883
   2.111000      0.985821
   2.112000      0.985756
   2.113000      0.985689
   2.114000      0.985620
   2.115000      0.985549
   2.116000      0.985478
   2.117000      0.985407
   2.118000      0.985336
   2.119000      0.985266
   2.120000      0.985198
   2.121000      0.985133
   2.122000      0.985071
   2.123000      0.985013
   2.124000      0.984959
   2.125000      0.984910
   2.126000      0.984867
   2.127000      0.984830
   2.128000      0.984798
   2.129000      0.984773
   2.130000      0.984754
   2.131000      0.984742
   2.132000      0.984735
   2.133000      0.984735
   2.134000      0.984741
   2.135000      0.984752
   2.136000      0.984767
   2.137000      0.984788
   2.138000      0.984812
   2.139000      0.984839
   2.140000      0.984868
   2.141000      0.984900
   2.142000      0.984933
   2.143000      0.984966
   2.144000      0.985000
   2.145000      0.985033
   2.146000      0.985064
   2.147000      0.985094
   2.148000      0.985122
   2.149000      0.985148
   2.150000      0.985171
   2.151000      0.985191
   2.152000      0.985208
   2.153000      0.985223
   2.154000      0.985235
   2.155000      0.985245
   2.156000      0.985252
   2.157000      0.985258
   2.158000      0.985263
   2.159000      0.985267
   2.160000      0.985271
   2.161000      0.985276
   2.162000      0.985281
   2.163000      0.985289
   2.164000      0.985299
   2.165000      0.985312
   2.166000      0.985329
   2.167000      0.985350
   2.168000      0.985376
   2.169000      0.985408
   2.170000      0.985444
   2.171000      0.985487
   2.172000      0.985536
   2.173000      0.985591
   2.174000      0.985651
   2.175000      0.985718
   2.176000      0.985791
   2.177000      0.985869
   2.178000      0.985952
   2.179000      0.986040
   2.180000      0.986131
   2.181000      0.986226
   2.182000      0.986323
   2.183000      0.986422
   2.184000      0.986523
   2.185000      0.986623
   2.186000      0.986723
   2.187000      0.986822
   2.188000      0.986918
   2.189000      0.987012
   2.190000      0.987103
   2.191000      0.987189
   2.192000      0.987272
   2.193000      0.987349
   2.194000      0.987421
   2.195000      0.987487
   2.196000      0.987548
   2.197000      0.987604
   2.198000      0.987654
   2.199000      0.987699
   2.200000      0.987739
   2.201000      0.987775
   2.202000      0.987806
   2.203000      0.987834
   2.204000      0.987859
   2.205000      0.987882
   2.206000      0.987904
   2.207000      0.987925
   2.208000      0.987946
   2.209000      0.987968
   2.210000      0.987991
   2.211000      0.988017
   2.212000      0.988045
   2.213000      0.988077
   2.214000      0.988113
   2.215000      0.988153
   2.216000      0.988197
   2.217000      0.988246
   2.218000      0.988300
   2.219000      0.988359
   2.220000      0.988422
   2.221000      0.988489
   2.222000      0.988561
   2.223000      0.988636
   2.224000      0.988713
   2.225000      0.988793
   2.226000      0.988875
   2.227000      0.988957
   2.228000      0.989039
   2.229000      0.989119
   2.230000      0.989198
   2.231000      0.989274
   2.232000      0.989347
   2.233000      0.989415
   2.234000      0.989477
   2.235000      0.989533
   2.236000      0.989583
   2.237000      0.989625
   2.238000      0.989660
   2.239000      0.989687
   2.240000      0.989705
   2.241000      0.989716
   2.242000      0.989717
   2.243000      0.989711
   2.244000      0.989697
   2.245000      0.989676
   2.246000      0.989647
   2.247000      0.989613
   2.248000      0.989573
   2.249000      0.989528
   2.250000      0.989480
   2.251000      0.989428
   2.252000      0.989375
   2.253000      0.989321
   2.254000      0.989266
   2.255000      0.989213
   2.256000      0.989161
   2.257000      0.989112
   2.258000      0.989067
   2.259000      0.989025
   2.260000      0.988989
   2.261000      0.988957
   2.262000      0.988930
   2.263000      0.988910
   2.264000      0.988894
   2.265000      0.988885
   2.266000      0.988880
   2.267000      0.988881
   2.268000      0.988885
   2.269000      0.988894
   2.270000      0.988905
   2.271000      0.988919
   2.272000      0.988933
   2.273000      0.988948
   2.274000      0.988962
   2.275000      0.988974
   2.276000      0.988983
   2.277000      0.988988
   2.278000      0.988988
   2.279000      0.988981
   2.280000      0.988968
   2.281000      0.988946
   2.282000      0.988916
   2.283000      0.988877
   2.284000      0.988829
   2.285000      0.988770
   2.286000      0.988702
   2.287000      0.988624
   2.288000      0.988536
   2.289000      0.988438
   2.290000      0.988332
   2.291000      0.988218
   2.292000      0.988097
   2.293000      0.987970
   2.294000      0.987838
   2.295000      0.987702
   2.296000      0.987563
   2.297000      0.987423
   2.298000      0.987283
   2.299000      0.987145
   2.300000      0.987009
   2.301000      0.986879
   2.302000      0.986753
   2.303000      0.986634
   2.304000      0.986523
   2.305000      0.986420
   2.306000      0.986326
   2.307000      0.986242
   2.308000      0.986167
   2.309000      0.986103
   2.310000      0.986049
   2.311000      0.986005
   2.312000      0.985970
   2.313000      0.985944
   2.314000      0.985926
   2.315000      0.985915
   2.316000      0.985910
   2.317000      0.985910
   2.318000      0.985913
   2.319000      0.985918
   2.320000      0.985924
   2.321000      0.985929
   2.322000      0.985932
   2.323000      0.985930
   2.324000      0.985924
   2.325000      0.985911
   2.326000      0.985890
   2.327000      0.985861
   2.328000      0.985822
   2.329000      0.985773
   2.330000      0.985713
   2.331000      0.985643
   2.332000      0.985562
   2.333000      0.985470
   2.334000      0.985369
   2.335000      0.985258
   2.336000      0.985140
   2.337000      0.985014
   2.338000      0.984883
   2.339000      0.984748
   2.340000      0.984610
   2.341000      0.984473
   2.342000      0.984336
   2.343000      0.984204
   2.344000      0.984076
   2.345000      0.983956
   2.346000      0.983845
   2.347000      0.983745
   2.348000      0.983658
   2.349000      0.983584
   2.350000      0.983525
   2.351000      0.983482
   2.352000      0.983455
   2.353000      0.983445
   2.354000      0.983453
   2.355000      0.983476
   2.356000      0.983515
   2.357000      0.983570
   2.358000      0.983638
   2.359000      0.983718
   2.360000      0.983808
   2.361000      0.983907
   2.362000      0.984012
   2.363000      0.984120
   2.364000      0.984229
   2.365000      0.984338
   2.366000      0.984442
   2.367000      0.984540
   2.368000      0.984629
   2.369000      0.984707
   2.370000      0.984773
   2.371000      0.984824
   2.372000      0.984859
   2.373000      0.984878
   2.374000      0.984879
   2.375000      0.984863
   2.376000      0.984829
   2.377000      0.984780
   2.378000      0.984716
   2.379000      0.984639
   2.380000      0.984551
   2.381000      0.984455
   2.382000      0.984353
   2.383000      0.984249
   2.384000      0.984146
   2.385000      0.984049
   2.386000      0.983960
   2.387000      0.983883
   2.388000      0.983822
   2.389000      0.983780
   2.390000      0.983759
   2.391000      0.983764
   2.392000      0.983796
   2.393000      0.983856
   2.394000      0.983946
   2.395000      0.984066
   2.396000      0.984215
   2.397000      0.984393
   2.398000      0.984597
   2.399000      0.984825
   2.400000      0.985074
   2.401000      0.985340
   2.402000      0.985617
   2.403000      0.985901
   2.404000      0.986186
   2.405000      0.986467
   2.406000      0.986737
   2.407000      0.986990
   2.408000      0.987220
   2.409000      0.987423
   2.410000      0.987592
   2.411000      0.987725
   2.412000      0.987817
   2.413000      0.987867
   2.414000      0.987873
   2.415000      0.987836
   2.416000      0.987757
   2.417000      0.987640
   2.418000      0.987489
   2.419000      0.987310
   2.420000      0.987109
   2.421000      0.986895
   2.422000      0.986678
   2.423000      0.986466
   2.424000      0.986270
   2.425000      0.986100
   2.426000      0.985965
   2.427000      0.985876
   2.428000      0.985838
   2.429000      0.985860
   2.430000      0.985945
   2.431000      0.986095
   2.432000      0.986311
   2.433000      0.986588
   2.434000      0.986920
   2.435000      0.987297
   2.436000      0.987708
   2.437000      0.988137
   2.438000      0.988566
   2.439000      0.988975
   2.440000      0.989345
   2.441000      0.989654
   2.442000      0.989883
   2.443000      0.990017
   2.444000      0.990041
   2.445000      0.989948
   2.446000      0.989740
   2.447000      0.989423
   2.448000      0.989016
   2.449000      0.988548
   2.450000      0.988055
   2.451000      0.987587
   2.452000      0.987197
   2.453000      0.986944
   2.454000      0.986885
   2.455000      0.987066
   2.456000      0.987516
   2.457000      0.988226
   2.458000      0.989134
   2.459000      0.990098
   2.460000      0.990866
   2.461000      0.991035
   2.462000      0.990007
   2.463000      0.986947
   2.464000      0.980746
   2.465000      0.970014
   2.466000      0.953133
   2.467000      0.928389
   2.468000      0.894229
   2.469000      0.849616
   2.470000      0.794417
   2.471000      0.729700
   2.472000      0.657773
   2.473000      0.581887
   2.474000      0.505666
   2.475000      0.432471
   2.476000      0.364898
   2.477000      0.304563
   2.478000      0.252136
   2.479000      0.207543
   2.480000      0.170225
   2.481000      0.139360
   2.482000      0.114042
   2.483000      0.093384
   2.484000      0.076579
   2.485000      0.062927
   2.486000      0.051837
   2.487000      0.042820
   2.488000      0.035476
   2.489000      0.029481
   2.490000      0.024576
   2.491000      0.020551
   2.492000      0.017239
   2.493000      0.014505
   2.494000      0.012241
   2.495000      0.010361
   2.496000      0.008796
   2.497000      0.007487
   2.498000      0.006391
   2.499000      0.005470
   2.500000      0.004693
   2.501000      0.004037
   2.502000      0.003481
   2.503000      0.003009
   2.504000      0.002606
   2.505000      0.002263
   2.506000      0.001969
   2.507000      0.001717
   2.508000      0.001500
   2.509000      0.001313
   2.510000      0.001151
   2.511000      0.001012
   2.512000      0.000891
   2.513000      0.000785
   2.514000      0.000694
   2.515000      0.000614
   2.516000      0.000544
   2.517000      0.000483
   2.518000      0.000429
   2.519000      0.000382
   2.520000      0.000341
   2.521000      0.000305
   2.522000      0.000272
   2.523000      0.000244
   2.524000      0.000219
   2.525000      0.000196
   2.526000      0.000177
   2.527000      0.000159
   2.528000      0.000143
   2.529000      0.000129
   2.530000      0.000117
   2.531000      0.000106
   2.532000      0.000096
   2.533000      0.000087
   2.534000      0.000079
   2.535000      0.000072
   2.536000      0.000065
   2.537000      0.000059
   2.538000      0.000054
   2.539000      0.000049
   2.540000      0.000045
   2.541000      0.000041
   2.542000      0.000038
   2.543000      0.000035
   2.544000      0.000032
   2.545000      0.000029
   2.546000      0.000027
   2.547000      0.000025
   2.548000      0.000023
   2.549000      0.000021
   2.550000      0.000019
   2.551000      0.000018
   2.552000      0.000016
   2.553000      0.000015
   2.554000      0.000014
   2.555000      0.000013
   2.556000      0.000012
   2.557000      0.000011
   2.558000      0.000010
   2.559000      0.000010
   2.560000      0.000009
   2.561000      0.000008
   2.562000      0.000008
   2.563000      0.000007
   2.564000      0.000007
   2.565000      0.000006
   2.566000      0.000006
   2.567000      0.000005
   2.568000      0.000005
   2.569000      0.000005
   2.570000      0.000004
   2.571000      0.000004
   2.572000      0.000004
   2.573000      0.000004
   2.574000      0.000003
   2.575000      0.000003
   2.576000      0.000003
   2.577000      0.000003
   2.578000      0.000003
   2.579000      0.000003
   2.580000      0.000002
   2.581000      0.000002
   2.582000      0.000002
   2.583000      0.000002
   2.584000      0.000002
   2.585000      0.000002
   2.586000      0.000002
   2.587000      0.000002
   2.588000      0.000002
   2.589000      0.000001
   2.590000      0.000001
   2.591000      0.000001
   2.592000      0.000001
   2.593000      0.000001
   2.594000      0.000001
   2.595000      0.000001
   2.596000      0.000001
   2.597000      0.000001
   2.598000      0.000001
   2.599000      0.000001
   2.600000      0.000001
   2.601000      0.000001
   2.602000      0.000001
   2.603000      0.000001
   2.604000      0.000001
   2.605000      0.000001
   2.606000      0.000001
   2.607000      0.000001
   2.608000      0.000001
   2.609000      0.000001
   2.610000      0.000000
   2.611000      0.000000
   2.612000      0.000000
   2.613000      0.000000
   2.614000      0.000000
   2.615000      0.000000
   2.616000      0.000000
   2.617000      0.000000
   2.618000      0.000000
   2.619000      0.000000
   2.620000      0.000000
   2.621000      0.000000
   2.622000      0.000000
   2.623000      0.000000
   2.624000      0.000000
   2.625000      0.000000
   2.626000      0.000000
   2.627000      0.000000
   2.628000      0.000000
   2.629000      0.000000
   2.630000      0.000000
   2.631000      0.000000
   2.632000      0.000000
   2.633000      0.000000
   2.634000      0.000000
   2.635000      0.000000
   2.636000      0.000000
   2.637000      0.000000
   2.638000      0.000000
   2.639000      0.000000
   2.640000      0.000000
   2.641000      0.000000
   2.642000      0.000000
   2.643000      0.000000
   2.644000      0.000000
   2.645000      0.000000
   2.646000      0.000000
   2.647000      0.000000
   2.648000      0.000000
   2.649000      0.000000
   2.650000      0.000000
   2.651000      0.000000
   2.652000      0.000000
   2.653000      0.000000
   2.654000      0.000000
   2.655000      0.000000
   2.656000      0.000000
   2.657000      0.000000
   2.658000      0.000000
   2.659000      0.000000
   2.660000      0.000000
   2.661000      0.000000
   2.662000      0.000000
   2.663000      0.000000
   2.664000      0.000000
   2.665000      0.000000
   2.666000      0.000000
   2.667000      0.000000
   2.668000      0.000000
   2.669000      0.000000
   2.670000      0.000000
   2.671000      0.000000
   2.672000      0.000000
   2.673000      0.000000
   2.674000      0.000000
   2.675000      0.000000
   2.676000      0.000000
   2.677000      0.000000
   2.678000      0.000000
   2.679000      0.000000
   2.680000      0.000000
   2.681000      0.000000
   2.682000      0.000000
   2.683000      0.000000
   2.684000      0.000000
   2.685000      0.000000
   2.686000      0.000000
   2.687000      0.000000
   2.688000      0.000000
   2.689000      0.000000
   2.690000      0.000000
   2.691000      0.000000
   2.692000      0.000000
   2.693000      0.000000
   2.694000      0.000000
   2.695000      0.000000
   2.696000      0.000000
   2.697000      0.000000
   2.698000      0.000000
   2.699000      0.000000
   2.700000      0.000000
   2.701000      0.000000
   2.702000      0.000000
   2.703000      0.000000
   2.704000      0.000000
   2.705000      0.000000
   2.706000      0.000000
   2.707000      0.000000
   2.708000      0.000000
   2.709000      0.000000
   2.710000      0.000000
   2.711000      0.000000
   2.712000      0.000000
   2.713000      0.000000
   2.714000      0.000000
   2.715000      0.000000
   2.716000      0.000000
   2.717000      0.000000
   2.718000      0.000000
   2.719000      0.000000
   2.720000      0.000000
   2.721000      0.000000
   2.722000      0.000000
   2.723000      0.000000
   2.724000      0.000000
   2.725000      0.000000
   2.726000      0.000000
   2.727000      0.000000
   2.728000      0.000000
   2.729000      0.000000
   2.730000      0.000000
   2.731000      0.000000
   2.732000      0.000000
   2.733000      0.000000
   2.734000      0.000000
   2.735000      0.000000
   2.736000      0.000000
   2.737000      0.000000
   2.738000      0.000000
   2.739000      0.000000
   2.740000      0.000000
   2.741000      0.000000
   2.742000      0.000000
   2.743000      0.000000
   2.744000      0.000000
   2.745000      0.000000
   2.746000      0.000000
   2.747000      0.000000
   2.748000      0.000000
   2.749000      0.000000
   2.750000      0.000000
   2.751000      0.000000
   2.752000      0.000000
   2.753000      0.000000
   2.754000      0.000000
   2.755000      0.000000
   2.756000      0.000000
   2.757000      0.000000
   2.758000      0.000000
   2.759000      0.000000
   2.760000      0.000000
   2.761000      0.000000
   2.762000      0.000000
   2.763000      0.000000
   2.764000      0.000000
   2.765000      0.000000
   2.766000      0.000000
   2.767000      0.000000
   2.768000      0.000000
   2.769000      0.000000
   2.770000      0.000000
   2.771000      0.000000
   2.772000      0.000000
   2.773000      0.000000
   2.774000      0.000000
   2.775000      0.000000
   2.776000      0.000000
   2.777000      0.000000
   2.778000      0.000000
   2.779000      0.000000
   2.780000      0.000000
   2.781000      0.000000
   2.782000      0.000000
   2.783000      0.000000
   2.784000      0.000000
   2.785000      0.000000
   2.786000      0.000000
   2.787000      0.000000
   2.788000      0.000000
   2.789000      0.000000
   2.790000      0.000000
   2.791000      0.000000
   2.792000      0.000000
   2.793000      0.000000
   2.794000      0.000000
   2.795000      0.000000
   2.796000      0.000000
   2.797000      0.000000
   2.798000      0.000000
   2.799000      0.000000
   2.800000      0.000000
