# author : Ric Davies
# source : Ric Davies
# date_created : 2017-11-20
# date_modified: 2025-06-16
# status: Manufacturer's estimate
# wavelength_unit : um
# changes :
# - 2022-03-17 (KL) Updated to match Ric Davies' email
# - 2023-06-06 (RD) Modified profiles after discussion with Schott
# - 2025-06-16 (FH) Updated filter curve based on Ric Davies' email.
#
 wavelength  transmission
   0.500000      0.000000
   0.500500      0.000000
   0.501000      0.000000
   0.501500      0.000000
   0.502000      0.000000
   0.502500      0.000000
   0.503000      0.000000
   0.503500      0.000000
   0.504000      0.000000
   0.504500      0.000000
   0.505000      0.000000
   0.505500      0.000000
   0.506000      0.000000
   0.506500      0.000000
   0.507000      0.000000
   0.507500      0.000000
   0.508000      0.000000
   0.508500      0.000000
   0.509000      0.000000
   0.509500      0.000000
   0.510000      0.000000
   0.510500      0.000000
   0.511000      0.000000
   0.511500      0.000000
   0.512000      0.000000
   0.512500      0.000000
   0.513000      0.000000
   0.513500      0.000000
   0.514000      0.000000
   0.514500      0.000000
   0.515000      0.000000
   0.515500      0.000000
   0.516000      0.000000
   0.516500      0.000000
   0.517000      0.000000
   0.517500      0.000000
   0.518000      0.000000
   0.518500      0.000000
   0.519000      0.000000
   0.519500      0.000000
   0.520000      0.000000
   0.520500      0.000000
   0.521000      0.000000
   0.521500      0.000000
   0.522000      0.000000
   0.522500      0.000000
   0.523000      0.000000
   0.523500      0.000000
   0.524000      0.000000
   0.524500      0.000000
   0.525000      0.000000
   0.525500      0.000000
   0.526000      0.000000
   0.526500      0.000000
   0.527000      0.000000
   0.527500      0.000000
   0.528000      0.000000
   0.528500      0.000000
   0.529000      0.000000
   0.529500      0.000000
   0.530000      0.000000
   0.530500      0.000000
   0.531000      0.000000
   0.531500      0.000000
   0.532000      0.000000
   0.532500      0.000000
   0.533000      0.000000
   0.533500      0.000000
   0.534000      0.000000
   0.534500      0.000000
   0.535000      0.000000
   0.535500      0.000000
   0.536000      0.000000
   0.536500      0.000000
   0.537000      0.000000
   0.537500      0.000000
   0.538000      0.000000
   0.538500      0.000000
   0.539000      0.000000
   0.539500      0.000000
   0.540000      0.000000
   0.540500      0.000000
   0.541000      0.000000
   0.541500      0.000000
   0.542000      0.000000
   0.542500      0.000000
   0.543000      0.000000
   0.543500      0.000000
   0.544000      0.000000
   0.544500      0.000000
   0.545000      0.000000
   0.545500      0.000000
   0.546000      0.000000
   0.546500      0.000000
   0.547000      0.000000
   0.547500      0.000000
   0.548000      0.000000
   0.548500      0.000000
   0.549000      0.000000
   0.549500      0.000000
   0.550000      0.000000
   0.550500      0.000000
   0.551000      0.000000
   0.551500      0.000000
   0.552000      0.000000
   0.552500      0.000000
   0.553000      0.000000
   0.553500      0.000000
   0.554000      0.000000
   0.554500      0.000000
   0.555000      0.000000
   0.555500      0.000000
   0.556000      0.000000
   0.556500      0.000000
   0.557000      0.000000
   0.557500      0.000000
   0.558000      0.000000
   0.558500      0.000000
   0.559000      0.000000
   0.559500      0.000000
   0.560000      0.000000
   0.560500      0.000000
   0.561000      0.000000
   0.561500      0.000000
   0.562000      0.000000
   0.562500      0.000000
   0.563000      0.000000
   0.563500      0.000000
   0.564000      0.000000
   0.564500      0.000000
   0.565000      0.000000
   0.565500      0.000000
   0.566000      0.000000
   0.566500      0.000001
   0.567000      0.000000
   0.567500      0.000000
   0.568000      0.000000
   0.568500      0.000000
   0.569000      0.000000
   0.569500      0.000000
   0.570000      0.000000
   0.570500      0.000001
   0.571000      0.000001
   0.571500      0.000001
   0.572000      0.000001
   0.572500      0.000001
   0.573000      0.000001
   0.573500      0.000002
   0.574000      0.000003
   0.574500      0.000003
   0.575000      0.000002
   0.575500      0.000001
   0.576000      0.000001
   0.576500      0.000002
   0.577000      0.000005
   0.577500      0.000006
   0.578000      0.000003
   0.578500      0.000002
   0.579000      0.000001
   0.579500      0.000002
   0.580000      0.000003
   0.580500      0.000006
   0.581000      0.000010
   0.581500      0.000010
   0.582000      0.000008
   0.582500      0.000009
   0.583000      0.000011
   0.583500      0.000015
   0.584000      0.000018
   0.584500      0.000020
   0.585000      0.000023
   0.585500      0.000028
   0.586000      0.000031
   0.586500      0.000028
   0.587000      0.000027
   0.587500      0.000031
   0.588000      0.000041
   0.588500      0.000046
   0.589000      0.000035
   0.589500      0.000025
   0.590000      0.000023
   0.590500      0.000030
   0.591000      0.000053
   0.591500      0.000066
   0.592000      0.000032
   0.592500      0.000017
   0.593000      0.000012
   0.593500      0.000011
   0.594000      0.000015
   0.594500      0.000028
   0.595000      0.000069
   0.595500      0.000113
   0.596000      0.000077
   0.596500      0.000069
   0.597000      0.000102
   0.597500      0.000100
   0.598000      0.000030
   0.598500      0.000012
   0.599000      0.000006
   0.599500      0.000005
   0.600000      0.000004
   0.600500      0.000005
   0.601000      0.000007
   0.601500      0.000012
   0.602000      0.000017
   0.602500      0.000014
   0.603000      0.000010
   0.603500      0.000008
   0.604000      0.000008
   0.604500      0.000010
   0.605000      0.000014
   0.605500      0.000021
   0.606000      0.000029
   0.606500      0.000040
   0.607000      0.000065
   0.607500      0.000099
   0.608000      0.000061
   0.608500      0.000028
   0.609000      0.000017
   0.609500      0.000015
   0.610000      0.000019
   0.610500      0.000041
   0.611000      0.000137
   0.611500      0.000047
   0.612000      0.000014
   0.612500      0.000007
   0.613000      0.000005
   0.613500      0.000005
   0.614000      0.000006
   0.614500      0.000010
   0.615000      0.000024
   0.615500      0.000096
   0.616000      0.000109
   0.616500      0.000037
   0.617000      0.000021
   0.617500      0.000018
   0.618000      0.000020
   0.618500      0.000029
   0.619000      0.000055
   0.619500      0.000144
   0.620000      0.000554
   0.620500      0.001761
   0.621000      0.001651
   0.621500      0.001871
   0.622000      0.002369
   0.622500      0.001114
   0.623000      0.000446
   0.623500      0.000242
   0.624000      0.000166
   0.624500      0.000131
   0.625000      0.000112
   0.625500      0.000098
   0.626000      0.000091
   0.626500      0.000093
   0.627000      0.000112
   0.627500      0.000171
   0.628000      0.000347
   0.628500      0.000529
   0.629000      0.000245
   0.629500      0.000112
   0.630000      0.000071
   0.630500      0.000059
   0.631000      0.000064
   0.631500      0.000090
   0.632000      0.000171
   0.632500      0.000411
   0.633000      0.000506
   0.633500      0.000294
   0.634000      0.000223
   0.634500      0.000272
   0.635000      0.000666
   0.635500      0.002750
   0.636000      0.000354
   0.636500      0.000106
   0.637000      0.000057
   0.637500      0.000045
   0.638000      0.000051
   0.638500      0.000092
   0.639000      0.000151
   0.639500      0.000042
   0.640000      0.000013
   0.640500      0.000006
   0.641000      0.000003
   0.641500      0.000002
   0.642000      0.000002
   0.642500      0.000003
   0.643000      0.000004
   0.643500      0.000007
   0.644000      0.000007
   0.644500      0.000003
   0.645000      0.000001
   0.645500      0.000001
   0.646000      0.000000
   0.646500      0.000000
   0.647000      0.000000
   0.647500      0.000000
   0.648000      0.000000
   0.648500      0.000000
   0.649000      0.000000
   0.649500      0.000000
   0.650000      0.000001
   0.650500      0.000001
   0.651000      0.000001
   0.651500      0.000002
   0.652000      0.000002
   0.652500      0.000003
   0.653000      0.000003
   0.653500      0.000005
   0.654000      0.000006
   0.654500      0.000005
   0.655000      0.000003
   0.655500      0.000002
   0.656000      0.000001
   0.656500      0.000001
   0.657000      0.000001
   0.657500      0.000001
   0.658000      0.000001
   0.658500      0.000002
   0.659000      0.000002
   0.659500      0.000004
   0.660000      0.000009
   0.660500      0.000026
   0.661000      0.000096
   0.661500      0.000106
   0.662000      0.000056
   0.662500      0.000041
   0.663000      0.000040
   0.663500      0.000049
   0.664000      0.000074
   0.664500      0.000133
   0.665000      0.000283
   0.665500      0.000567
   0.666000      0.000671
   0.666500      0.000548
   0.667000      0.000479
   0.667500      0.000506
   0.668000      0.000648
   0.668500      0.000968
   0.669000      0.001504
   0.669500      0.002033
   0.670000      0.002260
   0.670500      0.002055
   0.671000      0.001262
   0.671500      0.000588
   0.672000      0.000289
   0.672500      0.000169
   0.673000      0.000120
   0.673500      0.000101
   0.674000      0.000095
   0.674500      0.000081
   0.675000      0.000048
   0.675500      0.000023
   0.676000      0.000011
   0.676500      0.000006
   0.677000      0.000004
   0.677500      0.000003
   0.678000      0.000002
   0.678500      0.000002
   0.679000      0.000002
   0.679500      0.000002
   0.680000      0.000002
   0.680500      0.000002
   0.681000      0.000002
   0.681500      0.000001
   0.682000      0.000001
   0.682500      0.000001
   0.683000      0.000000
   0.683500      0.000000
   0.684000      0.000000
   0.684500      0.000000
   0.685000      0.000000
   0.685500      0.000000
   0.686000      0.000000
   0.686500      0.000000
   0.687000      0.000000
   0.687500      0.000000
   0.688000      0.000000
   0.688500      0.000000
   0.689000      0.000000
   0.689500      0.000000
   0.690000      0.000000
   0.690500      0.000000
   0.691000      0.000000
   0.691500      0.000000
   0.692000      0.000000
   0.692500      0.000000
   0.693000      0.000000
   0.693500      0.000000
   0.694000      0.000000
   0.694500      0.000000
   0.695000      0.000000
   0.695500      0.000000
   0.696000      0.000000
   0.696500      0.000000
   0.697000      0.000000
   0.697500      0.000000
   0.698000      0.000000
   0.698500      0.000000
   0.699000      0.000000
   0.699500      0.000000
   0.700000      0.000000
   0.700500      0.000000
   0.701000      0.000000
   0.701500      0.000000
   0.702000      0.000000
   0.702500      0.000000
   0.703000      0.000000
   0.703500      0.000000
   0.704000      0.000000
   0.704500      0.000000
   0.705000      0.000000
   0.705500      0.000001
   0.706000      0.000001
   0.706500      0.000002
   0.707000      0.000004
   0.707500      0.000004
   0.708000      0.000003
   0.708500      0.000002
   0.709000      0.000002
   0.709500      0.000001
   0.710000      0.000001
   0.710500      0.000001
   0.711000      0.000001
   0.711500      0.000001
   0.712000      0.000001
   0.712500      0.000001
   0.713000      0.000001
   0.713500      0.000001
   0.714000      0.000001
   0.714500      0.000001
   0.715000      0.000001
   0.715500      0.000001
   0.716000      0.000001
   0.716500      0.000001
   0.717000      0.000001
   0.717500      0.000001
   0.718000      0.000002
   0.718500      0.000002
   0.719000      0.000004
   0.719500      0.000008
   0.720000      0.000015
   0.720500      0.000022
   0.721000      0.000023
   0.721500      0.000021
   0.722000      0.000020
   0.722500      0.000024
   0.723000      0.000033
   0.723500      0.000047
   0.724000      0.000048
   0.724500      0.000035
   0.725000      0.000025
   0.725500      0.000021
   0.726000      0.000021
   0.726500      0.000020
   0.727000      0.000014
   0.727500      0.000007
   0.728000      0.000003
   0.728500      0.000002
   0.729000      0.000001
   0.729500      0.000001
   0.730000      0.000001
   0.730500      0.000001
   0.731000      0.000001
   0.731500      0.000003
   0.732000      0.000004
   0.732500      0.000002
   0.733000      0.000001
   0.733500      0.000000
   0.734000      0.000000
   0.734500      0.000000
   0.735000      0.000000
   0.735500      0.000000
   0.736000      0.000000
   0.736500      0.000000
   0.737000      0.000000
   0.737500      0.000000
   0.738000      0.000000
   0.738500      0.000000
   0.739000      0.000000
   0.739500      0.000001
   0.740000      0.000001
   0.740500      0.000000
   0.741000      0.000000
   0.741500      0.000000
   0.742000      0.000000
   0.742500      0.000000
   0.743000      0.000000
   0.743500      0.000000
   0.744000      0.000000
   0.744500      0.000000
   0.745000      0.000000
   0.745500      0.000000
   0.746000      0.000000
   0.746500      0.000000
   0.747000      0.000000
   0.747500      0.000000
   0.748000      0.000000
   0.748500      0.000000
   0.749000      0.000000
   0.749500      0.000000
   0.750000      0.000000
   0.750500      0.000000
   0.751000      0.000000
   0.751500      0.000000
   0.752000      0.000000
   0.752500      0.000000
   0.753000      0.000000
   0.753500      0.000000
   0.754000      0.000000
   0.754500      0.000000
   0.755000      0.000000
   0.755500      0.000000
   0.756000      0.000000
   0.756500      0.000000
   0.757000      0.000000
   0.757500      0.000000
   0.758000      0.000000
   0.758500      0.000000
   0.759000      0.000000
   0.759500      0.000000
   0.760000      0.000000
   0.760500      0.000001
   0.761000      0.000001
   0.761500      0.000001
   0.762000      0.000001
   0.762500      0.000002
   0.763000      0.000002
   0.763500      0.000001
   0.764000      0.000001
   0.764500      0.000001
   0.765000      0.000001
   0.765500      0.000001
   0.766000      0.000000
   0.766500      0.000000
   0.767000      0.000000
   0.767500      0.000000
   0.768000      0.000000
   0.768500      0.000000
   0.769000      0.000000
   0.769500      0.000000
   0.770000      0.000000
   0.770500      0.000000
   0.771000      0.000001
   0.771500      0.000001
   0.772000      0.000001
   0.772500      0.000001
   0.773000      0.000002
   0.773500      0.000004
   0.774000      0.000007
   0.774500      0.000015
   0.775000      0.000037
   0.775500      0.000105
   0.776000      0.000344
   0.776500      0.000821
   0.777000      0.000830
   0.777500      0.000659
   0.778000      0.000574
   0.778500      0.000555
   0.779000      0.000592
   0.779500      0.000678
   0.780000      0.000717
   0.780500      0.000531
   0.781000      0.000287
   0.781500      0.000150
   0.782000      0.000086
   0.782500      0.000055
   0.783000      0.000039
   0.783500      0.000031
   0.784000      0.000026
   0.784500      0.000024
   0.785000      0.000023
   0.785500      0.000024
   0.786000      0.000026
   0.786500      0.000030
   0.787000      0.000035
   0.787500      0.000041
   0.788000      0.000049
   0.788500      0.000055
   0.789000      0.000058
   0.789500      0.000060
   0.790000      0.000059
   0.790500      0.000058
   0.791000      0.000058
   0.791500      0.000059
   0.792000      0.000061
   0.792500      0.000064
   0.793000      0.000067
   0.793500      0.000071
   0.794000      0.000073
   0.794500      0.000074
   0.795000      0.000071
   0.795500      0.000066
   0.796000      0.000059
   0.796500      0.000051
   0.797000      0.000042
   0.797500      0.000034
   0.798000      0.000027
   0.798500      0.000022
   0.799000      0.000017
   0.799500      0.000014
   0.800000      0.000011
   0.800500      0.000009
   0.801000      0.000008
   0.801500      0.000007
   0.802000      0.000006
   0.802500      0.000005
   0.803000      0.000005
   0.803500      0.000005
   0.804000      0.000005
   0.804500      0.000004
   0.805000      0.000004
   0.805500      0.000004
   0.806000      0.000004
   0.806500      0.000004
   0.807000      0.000004
   0.807500      0.000004
   0.808000      0.000004
   0.808500      0.000004
   0.809000      0.000004
   0.809500      0.000004
   0.810000      0.000004
   0.810500      0.000004
   0.811000      0.000004
   0.811500      0.000004
   0.812000      0.000004
   0.812500      0.000004
   0.813000      0.000004
   0.813500      0.000004
   0.814000      0.000005
   0.814500      0.000006
   0.815000      0.000008
   0.815500      0.000010
   0.816000      0.000014
   0.816500      0.000021
   0.817000      0.000033
   0.817500      0.000054
   0.818000      0.000080
   0.818500      0.000090
   0.819000      0.000080
   0.819500      0.000066
   0.820000      0.000056
   0.820500      0.000051
   0.821000      0.000049
   0.821500      0.000052
   0.822000      0.000059
   0.822500      0.000071
   0.823000      0.000091
   0.823500      0.000125
   0.824000      0.000174
   0.824500      0.000215
   0.825000      0.000189
   0.825500      0.000118
   0.826000      0.000065
   0.826500      0.000037
   0.827000      0.000022
   0.827500      0.000013
   0.828000      0.000009
   0.828500      0.000006
   0.829000      0.000004
   0.829500      0.000003
   0.830000      0.000002
   0.830500      0.000001
   0.831000      0.000001
   0.831500      0.000001
   0.832000      0.000001
   0.832500      0.000000
   0.833000      0.000000
   0.833500      0.000000
   0.834000      0.000000
   0.834500      0.000000
   0.835000      0.000000
   0.835500      0.000000
   0.836000      0.000000
   0.836500      0.000000
   0.837000      0.000000
   0.837500      0.000000
   0.838000      0.000000
   0.838500      0.000000
   0.839000      0.000000
   0.839500      0.000000
   0.840000      0.000000
   0.840500      0.000000
   0.841000      0.000000
   0.841500      0.000000
   0.842000      0.000000
   0.842500      0.000000
   0.843000      0.000000
   0.843500      0.000000
   0.844000      0.000000
   0.844500      0.000000
   0.845000      0.000000
   0.845500      0.000000
   0.846000      0.000000
   0.846500      0.000000
   0.847000      0.000000
   0.847500      0.000000
   0.848000      0.000000
   0.848500      0.000000
   0.849000      0.000000
   0.849500      0.000000
   0.850000      0.000000
   0.850500      0.000000
   0.851000      0.000000
   0.851500      0.000000
   0.852000      0.000000
   0.852500      0.000000
   0.853000      0.000001
   0.853500      0.000001
   0.854000      0.000001
   0.854500      0.000002
   0.855000      0.000002
   0.855500      0.000003
   0.856000      0.000003
   0.856500      0.000003
   0.857000      0.000003
   0.857500      0.000002
   0.858000      0.000002
   0.858500      0.000002
   0.859000      0.000001
   0.859500      0.000001
   0.860000      0.000001
   0.860500      0.000001
   0.861000      0.000001
   0.861500      0.000001
   0.862000      0.000001
   0.862500      0.000002
   0.863000      0.000002
   0.863500      0.000002
   0.864000      0.000002
   0.864500      0.000002
   0.865000      0.000002
   0.865500      0.000002
   0.866000      0.000002
   0.866500      0.000001
   0.867000      0.000001
   0.867500      0.000001
   0.868000      0.000001
   0.868500      0.000001
   0.869000      0.000001
   0.869500      0.000001
   0.870000      0.000001
   0.870500      0.000001
   0.871000      0.000001
   0.871500      0.000001
   0.872000      0.000001
   0.872500      0.000001
   0.873000      0.000001
   0.873500      0.000001
   0.874000      0.000001
   0.874500      0.000001
   0.875000      0.000001
   0.875500      0.000001
   0.876000      0.000001
   0.876500      0.000001
   0.877000      0.000001
   0.877500      0.000000
   0.878000      0.000000
   0.878500      0.000000
   0.879000      0.000000
   0.879500      0.000000
   0.880000      0.000000
   0.880500      0.000000
   0.881000      0.000000
   0.881500      0.000000
   0.882000      0.000000
   0.882500      0.000000
   0.883000      0.000000
   0.883500      0.000000
   0.884000      0.000000
   0.884500      0.000000
   0.885000      0.000000
   0.885500      0.000000
   0.886000      0.000000
   0.886500      0.000000
   0.887000      0.000000
   0.887500      0.000000
   0.888000      0.000001
   0.888500      0.000001
   0.889000      0.000001
   0.889500      0.000001
   0.890000      0.000001
   0.890500      0.000001
   0.891000      0.000001
   0.891500      0.000001
   0.892000      0.000001
   0.892500      0.000001
   0.893000      0.000002
   0.893500      0.000002
   0.894000      0.000002
   0.894500      0.000003
   0.895000      0.000003
   0.895500      0.000004
   0.896000      0.000004
   0.896500      0.000004
   0.897000      0.000004
   0.897500      0.000004
   0.898000      0.000004
   0.898500      0.000004
   0.899000      0.000004
   0.899500      0.000003
   0.900000      0.000003
   0.900500      0.000003
   0.901000      0.000003
   0.901500      0.000003
   0.902000      0.000003
   0.902500      0.000002
   0.903000      0.000002
   0.903500      0.000002
   0.904000      0.000002
   0.904500      0.000002
   0.905000      0.000002
   0.905500      0.000002
   0.906000      0.000002
   0.906500      0.000002
   0.907000      0.000001
   0.907500      0.000001
   0.908000      0.000001
   0.908500      0.000001
   0.909000      0.000001
   0.909500      0.000001
   0.910000      0.000001
   0.910500      0.000001
   0.911000      0.000001
   0.911500      0.000001
   0.912000      0.000001
   0.912500      0.000001
   0.913000      0.000001
   0.913500      0.000001
   0.914000      0.000001
   0.914500      0.000001
   0.915000      0.000001
   0.915500      0.000001
   0.916000      0.000001
   0.916500      0.000001
   0.917000      0.000001
   0.917500      0.000001
   0.918000      0.000001
   0.918500      0.000001
   0.919000      0.000002
   0.919500      0.000002
   0.920000      0.000002
   0.920500      0.000002
   0.921000      0.000002
   0.921500      0.000002
   0.922000      0.000002
   0.922500      0.000002
   0.923000      0.000002
   0.923500      0.000002
   0.924000      0.000003
   0.924500      0.000003
   0.925000      0.000003
   0.925500      0.000003
   0.926000      0.000004
   0.926500      0.000004
   0.927000      0.000005
   0.927500      0.000005
   0.928000      0.000006
   0.928500      0.000006
   0.929000      0.000007
   0.929500      0.000008
   0.930000      0.000009
   0.930500      0.000011
   0.931000      0.000013
   0.931500      0.000015
   0.932000      0.000018
   0.932500      0.000022
   0.933000      0.000027
   0.933500      0.000033
   0.934000      0.000042
   0.934500      0.000053
   0.935000      0.000068
   0.935500      0.000088
   0.936000      0.000112
   0.936500      0.000139
   0.937000      0.000166
   0.937500      0.000184
   0.938000      0.000189
   0.938500      0.000181
   0.939000      0.000164
   0.939500      0.000144
   0.940000      0.000125
   0.940500      0.000108
   0.941000      0.000095
   0.941500      0.000083
   0.942000      0.000073
   0.942500      0.000066
   0.943000      0.000059
   0.943500      0.000053
   0.944000      0.000048
   0.944500      0.000044
   0.945000      0.000040
   0.945500      0.000037
   0.946000      0.000034
   0.946500      0.000031
   0.947000      0.000028
   0.947500      0.000026
   0.948000      0.000023
   0.948500      0.000021
   0.949000      0.000019
   0.949500      0.000017
   0.950000      0.000015
   0.950500      0.000014
   0.951000      0.000012
   0.951500      0.000011
   0.952000      0.000010
   0.952500      0.000009
   0.953000      0.000008
   0.953500      0.000007
   0.954000      0.000006
   0.954500      0.000006
   0.955000      0.000005
   0.955500      0.000005
   0.956000      0.000004
   0.956500      0.000004
   0.957000      0.000004
   0.957500      0.000003
   0.958000      0.000003
   0.958500      0.000003
   0.959000      0.000003
   0.959500      0.000002
   0.960000      0.000002
   0.960500      0.000002
   0.961000      0.000002
   0.961500      0.000002
   0.962000      0.000002
   0.962500      0.000002
   0.963000      0.000002
   0.963500      0.000001
   0.964000      0.000001
   0.964500      0.000001
   0.965000      0.000001
   0.965500      0.000001
   0.966000      0.000001
   0.966500      0.000001
   0.967000      0.000001
   0.967500      0.000001
   0.968000      0.000001
   0.968500      0.000001
   0.969000      0.000001
   0.969500      0.000001
   0.970000      0.000001
   0.970500      0.000001
   0.971000      0.000001
   0.971500      0.000001
   0.972000      0.000001
   0.972500      0.000001
   0.973000      0.000001
   0.973500      0.000001
   0.974000      0.000001
   0.974500      0.000001
   0.975000      0.000001
   0.975500      0.000001
   0.976000      0.000001
   0.976500      0.000001
   0.977000      0.000001
   0.977500      0.000001
   0.978000      0.000001
   0.978500      0.000001
   0.979000      0.000001
   0.979500      0.000001
   0.980000      0.000001
   0.980500      0.000001
   0.981000      0.000001
   0.981500      0.000001
   0.982000      0.000001
   0.982500      0.000001
   0.983000      0.000001
   0.983500      0.000001
   0.984000      0.000001
   0.984500      0.000001
   0.985000      0.000001
   0.985500      0.000001
   0.986000      0.000001
   0.986500      0.000001
   0.987000      0.000001
   0.987500      0.000001
   0.988000      0.000001
   0.988500      0.000001
   0.989000      0.000002
   0.989500      0.000002
   0.990000      0.000002
   0.990500      0.000002
   0.991000      0.000002
   0.991500      0.000002
   0.992000      0.000002
   0.992500      0.000002
   0.993000      0.000003
   0.993500      0.000003
   0.994000      0.000003
   0.994500      0.000003
   0.995000      0.000004
   0.995500      0.000004
   0.996000      0.000004
   0.996500      0.000005
   0.997000      0.000005
   0.997500      0.000005
   0.998000      0.000006
   0.998500      0.000006
   0.999000      0.000006
   0.999500      0.000006
   1.000000      0.000006
   1.000500      0.000006
   1.001000      0.000006
   1.001500      0.000006
   1.002000      0.000006
   1.002500      0.000006
   1.003000      0.000005
   1.003500      0.000005
   1.004000      0.000005
   1.004500      0.000004
   1.005000      0.000004
   1.005500      0.000004
   1.006000      0.000004
   1.006500      0.000003
   1.007000      0.000003
   1.007500      0.000003
   1.008000      0.000003
   1.008500      0.000003
   1.009000      0.000002
   1.009500      0.000002
   1.010000      0.000002
   1.010500      0.000002
   1.011000      0.000002
   1.011500      0.000002
   1.012000      0.000002
   1.012500      0.000002
   1.013000      0.000002
   1.013500      0.000002
   1.014000      0.000002
   1.014500      0.000002
   1.015000      0.000001
   1.015500      0.000001
   1.016000      0.000001
   1.016500      0.000001
   1.017000      0.000001
   1.017500      0.000001
   1.018000      0.000001
   1.018500      0.000001
   1.019000      0.000001
   1.019500      0.000001
   1.020000      0.000001
   1.020500      0.000001
   1.021000      0.000001
   1.021500      0.000001
   1.022000      0.000001
   1.022500      0.000001
   1.023000      0.000001
   1.023500      0.000001
   1.024000      0.000001
   1.024500      0.000001
   1.025000      0.000001
   1.025500      0.000001
   1.026000      0.000001
   1.026500      0.000001
   1.027000      0.000001
   1.027500      0.000001
   1.028000      0.000002
   1.028500      0.000002
   1.029000      0.000002
   1.029500      0.000002
   1.030000      0.000002
   1.030500      0.000002
   1.031000      0.000002
   1.031500      0.000002
   1.032000      0.000002
   1.032500      0.000002
   1.033000      0.000002
   1.033500      0.000002
   1.034000      0.000002
   1.034500      0.000003
   1.035000      0.000003
   1.035500      0.000003
   1.036000      0.000003
   1.036500      0.000003
   1.037000      0.000004
   1.037500      0.000004
   1.038000      0.000004
   1.038500      0.000004
   1.039000      0.000005
   1.039500      0.000005
   1.040000      0.000006
   1.040500      0.000006
   1.041000      0.000007
   1.041500      0.000008
   1.042000      0.000009
   1.042500      0.000010
   1.043000      0.000011
   1.043500      0.000013
   1.044000      0.000015
   1.044500      0.000017
   1.045000      0.000020
   1.045500      0.000024
   1.046000      0.000028
   1.046500      0.000034
   1.047000      0.000041
   1.047500      0.000049
   1.048000      0.000059
   1.048500      0.000070
   1.049000      0.000081
   1.049500      0.000090
   1.050000      0.000095
   1.050500      0.000095
   1.051000      0.000089
   1.051500      0.000080
   1.052000      0.000070
   1.052500      0.000061
   1.053000      0.000052
   1.053500      0.000044
   1.054000      0.000038
   1.054500      0.000033
   1.055000      0.000029
   1.055500      0.000026
   1.056000      0.000023
   1.056500      0.000020
   1.057000      0.000018
   1.057500      0.000017
   1.058000      0.000015
   1.058500      0.000014
   1.059000      0.000013
   1.059500      0.000012
   1.060000      0.000011
   1.060500      0.000011
   1.061000      0.000010
   1.061500      0.000009
   1.062000      0.000009
   1.062500      0.000009
   1.063000      0.000008
   1.063500      0.000008
   1.064000      0.000008
   1.064500      0.000007
   1.065000      0.000007
   1.065500      0.000007
   1.066000      0.000007
   1.066500      0.000006
   1.067000      0.000006
   1.067500      0.000006
   1.068000      0.000006
   1.068500      0.000006
   1.069000      0.000006
   1.069500      0.000006
   1.070000      0.000006
   1.070500      0.000006
   1.071000      0.000005
   1.071500      0.000005
   1.072000      0.000005
   1.072500      0.000005
   1.073000      0.000005
   1.073500      0.000005
   1.074000      0.000005
   1.074500      0.000005
   1.075000      0.000005
   1.075500      0.000005
   1.076000      0.000005
   1.076500      0.000005
   1.077000      0.000005
   1.077500      0.000005
   1.078000      0.000005
   1.078500      0.000005
   1.079000      0.000005
   1.079500      0.000005
   1.080000      0.000005
   1.080500      0.000005
   1.081000      0.000006
   1.081500      0.000006
   1.082000      0.000006
   1.082500      0.000006
   1.083000      0.000006
   1.083500      0.000006
   1.084000      0.000006
   1.084500      0.000006
   1.085000      0.000006
   1.085500      0.000006
   1.086000      0.000006
   1.086500      0.000006
   1.087000      0.000007
   1.087500      0.000007
   1.088000      0.000007
   1.088500      0.000007
   1.089000      0.000007
   1.089500      0.000007
   1.090000      0.000008
   1.090500      0.000008
   1.091000      0.000008
   1.091500      0.000008
   1.092000      0.000008
   1.092500      0.000009
   1.093000      0.000009
   1.093500      0.000009
   1.094000      0.000010
   1.094500      0.000010
   1.095000      0.000010
   1.095500      0.000011
   1.096000      0.000011
   1.096500      0.000012
   1.097000      0.000012
   1.097500      0.000013
   1.098000      0.000014
   1.098500      0.000014
   1.099000      0.000015
   1.099500      0.000016
   1.100000      0.000017
   1.100500      0.000018
   1.101000      0.000019
   1.101500      0.000021
   1.102000      0.000022
   1.102500      0.000024
   1.103000      0.000026
   1.103500      0.000028
   1.104000      0.000031
   1.104500      0.000034
   1.105000      0.000038
   1.105500      0.000042
   1.106000      0.000047
   1.106500      0.000053
   1.107000      0.000061
   1.107500      0.000071
   1.108000      0.000083
   1.108500      0.000098
   1.109000      0.000118
   1.109500      0.000145
   1.110000      0.000181
   1.110500      0.000231
   1.111000      0.000299
   1.111500      0.000391
   1.112000      0.000508
   1.112500      0.000628
   1.113000      0.000701
   1.113500      0.000679
   1.114000      0.000576
   1.114500      0.000450
   1.115000      0.000342
   1.115500      0.000259
   1.116000      0.000199
   1.116500      0.000156
   1.117000      0.000125
   1.117500      0.000101
   1.118000      0.000084
   1.118500      0.000070
   1.119000      0.000060
   1.119500      0.000052
   1.120000      0.000045
   1.120500      0.000039
   1.121000      0.000035
   1.121500      0.000031
   1.122000      0.000028
   1.122500      0.000025
   1.123000      0.000023
   1.123500      0.000021
   1.124000      0.000019
   1.124500      0.000018
   1.125000      0.000016
   1.125500      0.000015
   1.126000      0.000014
   1.126500      0.000013
   1.127000      0.000012
   1.127500      0.000012
   1.128000      0.000011
   1.128500      0.000010
   1.129000      0.000010
   1.129500      0.000009
   1.130000      0.000009
   1.130500      0.000008
   1.131000      0.000008
   1.131500      0.000008
   1.132000      0.000007
   1.132500      0.000007
   1.133000      0.000007
   1.133500      0.000007
   1.134000      0.000006
   1.134500      0.000006
   1.135000      0.000006
   1.135500      0.000006
   1.136000      0.000006
   1.136500      0.000006
   1.137000      0.000005
   1.137500      0.000005
   1.138000      0.000005
   1.138500      0.000005
   1.139000      0.000005
   1.139500      0.000005
   1.140000      0.000005
   1.140500      0.000005
   1.141000      0.000005
   1.141500      0.000005
   1.142000      0.000005
   1.142500      0.000005
   1.143000      0.000005
   1.143500      0.000005
   1.144000      0.000005
   1.144500      0.000005
   1.145000      0.000005
   1.145500      0.000005
   1.146000      0.000005
   1.146500      0.000005
   1.147000      0.000005
   1.147500      0.000005
   1.148000      0.000005
   1.148500      0.000005
   1.149000      0.000005
   1.149500      0.000005
   1.150000      0.000005
   1.150500      0.000005
   1.151000      0.000005
   1.151500      0.000005
   1.152000      0.000005
   1.152500      0.000005
   1.153000      0.000005
   1.153500      0.000005
   1.154000      0.000005
   1.154500      0.000006
   1.155000      0.000006
   1.155500      0.000006
   1.156000      0.000006
   1.156500      0.000006
   1.157000      0.000006
   1.157500      0.000007
   1.158000      0.000007
   1.158500      0.000007
   1.159000      0.000007
   1.159500      0.000008
   1.160000      0.000008
   1.160500      0.000008
   1.161000      0.000008
   1.161500      0.000009
   1.162000      0.000009
   1.162500      0.000010
   1.163000      0.000010
   1.163500      0.000011
   1.164000      0.000012
   1.164500      0.000012
   1.165000      0.000013
   1.165500      0.000014
   1.166000      0.000015
   1.166500      0.000016
   1.167000      0.000017
   1.167500      0.000019
   1.168000      0.000021
   1.168500      0.000023
   1.169000      0.000025
   1.169500      0.000028
   1.170000      0.000031
   1.170500      0.000035
   1.171000      0.000039
   1.171500      0.000045
   1.172000      0.000052
   1.172500      0.000060
   1.173000      0.000072
   1.173500      0.000086
   1.174000      0.000106
   1.174500      0.000133
   1.175000      0.000173
   1.175500      0.000233
   1.176000      0.000329
   1.176500      0.000500
   1.177000      0.000834
   1.177500      0.001583
   1.178000      0.003284
   1.178500      0.004778
   1.179000      0.003255
   1.179500      0.001577
   1.180000      0.000836
   1.180500      0.000503
   1.181000      0.000333
   1.181500      0.000236
   1.182000      0.000176
   1.182500      0.000136
   1.183000      0.000108
   1.183500      0.000089
   1.184000      0.000074
   1.184500      0.000062
   1.185000      0.000054
   1.185500      0.000046
   1.186000      0.000041
   1.186500      0.000036
   1.187000      0.000032
   1.187500      0.000029
   1.188000      0.000026
   1.188500      0.000024
   1.189000      0.000022
   1.189500      0.000020
   1.190000      0.000018
   1.190500      0.000017
   1.191000      0.000016
   1.191500      0.000015
   1.192000      0.000014
   1.192500      0.000013
   1.193000      0.000012
   1.193500      0.000012
   1.194000      0.000011
   1.194500      0.000010
   1.195000      0.000010
   1.195500      0.000009
   1.196000      0.000009
   1.196500      0.000009
   1.197000      0.000008
   1.197500      0.000008
   1.198000      0.000008
   1.198500      0.000007
   1.199000      0.000007
   1.199500      0.000007
   1.200000      0.000007
   1.200500      0.000006
   1.201000      0.000006
   1.201500      0.000006
   1.202000      0.000006
   1.202500      0.000006
   1.203000      0.000006
   1.203500      0.000005
   1.204000      0.000005
   1.204500      0.000005
   1.205000      0.000005
   1.205500      0.000005
   1.206000      0.000005
   1.206500      0.000005
   1.207000      0.000005
   1.207500      0.000005
   1.208000      0.000005
   1.208500      0.000005
   1.209000      0.000004
   1.209500      0.000004
   1.210000      0.000004
   1.210500      0.000004
   1.211000      0.000004
   1.211500      0.000004
   1.212000      0.000004
   1.212500      0.000004
   1.213000      0.000004
   1.213500      0.000004
   1.214000      0.000004
   1.214500      0.000004
   1.215000      0.000004
   1.215500      0.000004
   1.216000      0.000004
   1.216500      0.000004
   1.217000      0.000004
   1.217500      0.000004
   1.218000      0.000004
   1.218500      0.000004
   1.219000      0.000004
   1.219500      0.000004
   1.220000      0.000004
   1.220500      0.000004
   1.221000      0.000004
   1.221500      0.000004
   1.222000      0.000004
   1.222500      0.000004
   1.223000      0.000004
   1.223500      0.000004
   1.224000      0.000004
   1.224500      0.000004
   1.225000      0.000004
   1.225500      0.000004
   1.226000      0.000004
   1.226500      0.000004
   1.227000      0.000004
   1.227500      0.000004
   1.228000      0.000004
   1.228500      0.000004
   1.229000      0.000004
   1.229500      0.000005
   1.230000      0.000005
   1.230500      0.000005
   1.231000      0.000005
   1.231500      0.000005
   1.232000      0.000005
   1.232500      0.000005
   1.233000      0.000005
   1.233500      0.000005
   1.234000      0.000005
   1.234500      0.000005
   1.235000      0.000005
   1.235500      0.000006
   1.236000      0.000006
   1.236500      0.000006
   1.237000      0.000006
   1.237500      0.000006
   1.238000      0.000006
   1.238500      0.000006
   1.239000      0.000007
   1.239500      0.000007
   1.240000      0.000007
   1.240500      0.000007
   1.241000      0.000007
   1.241500      0.000008
   1.242000      0.000008
   1.242500      0.000008
   1.243000      0.000008
   1.243500      0.000009
   1.244000      0.000009
   1.244500      0.000009
   1.245000      0.000010
   1.245500      0.000010
   1.246000      0.000010
   1.246500      0.000011
   1.247000      0.000011
   1.247500      0.000012
   1.248000      0.000012
   1.248500      0.000013
   1.249000      0.000013
   1.249500      0.000014
   1.250000      0.000015
   1.250500      0.000015
   1.251000      0.000016
   1.251500      0.000017
   1.252000      0.000018
   1.252500      0.000019
   1.253000      0.000020
   1.253500      0.000021
   1.254000      0.000022
   1.254500      0.000023
   1.255000      0.000024
   1.255500      0.000025
   1.256000      0.000027
   1.256500      0.000028
   1.257000      0.000029
   1.257500      0.000031
   1.258000      0.000033
   1.258500      0.000034
   1.259000      0.000036
   1.259500      0.000037
   1.260000      0.000039
   1.260500      0.000040
   1.261000      0.000041
   1.261500      0.000043
   1.262000      0.000044
   1.262500      0.000044
   1.263000      0.000045
   1.263500      0.000045
   1.264000      0.000046
   1.264500      0.000045
   1.265000      0.000045
   1.265500      0.000045
   1.266000      0.000044
   1.266500      0.000043
   1.267000      0.000042
   1.267500      0.000041
   1.268000      0.000039
   1.268500      0.000038
   1.269000      0.000037
   1.269500      0.000035
   1.270000      0.000034
   1.270500      0.000032
   1.271000      0.000031
   1.271500      0.000030
   1.272000      0.000028
   1.272500      0.000027
   1.273000      0.000026
   1.273500      0.000025
   1.274000      0.000024
   1.274500      0.000023
   1.275000      0.000022
   1.275500      0.000021
   1.276000      0.000020
   1.276500      0.000019
   1.277000      0.000018
   1.277500      0.000018
   1.278000      0.000017
   1.278500      0.000016
   1.279000      0.000016
   1.279500      0.000015
   1.280000      0.000015
   1.280500      0.000014
   1.281000      0.000014
   1.281500      0.000013
   1.282000      0.000013
   1.282500      0.000012
   1.283000      0.000012
   1.283500      0.000012
   1.284000      0.000011
   1.284500      0.000011
   1.285000      0.000011
   1.285500      0.000011
   1.286000      0.000010
   1.286500      0.000010
   1.287000      0.000010
   1.287500      0.000010
   1.288000      0.000009
   1.288500      0.000009
   1.289000      0.000009
   1.289500      0.000009
   1.290000      0.000009
   1.290500      0.000009
   1.291000      0.000008
   1.291500      0.000008
   1.292000      0.000008
   1.292500      0.000008
   1.293000      0.000008
   1.293500      0.000008
   1.294000      0.000008
   1.294500      0.000008
   1.295000      0.000008
   1.295500      0.000008
   1.296000      0.000008
   1.296500      0.000008
   1.297000      0.000007
   1.297500      0.000007
   1.298000      0.000007
   1.298500      0.000007
   1.299000      0.000007
   1.299500      0.000007
   1.300000      0.000007
   1.300500      0.000007
   1.301000      0.000007
   1.301500      0.000007
   1.302000      0.000007
   1.302500      0.000007
   1.303000      0.000007
   1.303500      0.000007
   1.304000      0.000007
   1.304500      0.000007
   1.305000      0.000007
   1.305500      0.000007
   1.306000      0.000007
   1.306500      0.000007
   1.307000      0.000008
   1.307500      0.000008
   1.308000      0.000008
   1.308500      0.000008
   1.309000      0.000008
   1.309500      0.000008
   1.310000      0.000008
   1.310500      0.000008
   1.311000      0.000008
   1.311500      0.000008
   1.312000      0.000008
   1.312500      0.000008
   1.313000      0.000008
   1.313500      0.000009
   1.314000      0.000009
   1.314500      0.000009
   1.315000      0.000009
   1.315500      0.000009
   1.316000      0.000009
   1.316500      0.000009
   1.317000      0.000010
   1.317500      0.000010
   1.318000      0.000010
   1.318500      0.000010
   1.319000      0.000010
   1.319500      0.000010
   1.320000      0.000011
   1.320500      0.000011
   1.321000      0.000011
   1.321500      0.000011
   1.322000      0.000011
   1.322500      0.000012
   1.323000      0.000012
   1.323500      0.000012
   1.324000      0.000012
   1.324500      0.000013
   1.325000      0.000013
   1.325500      0.000013
   1.326000      0.000013
   1.326500      0.000013
   1.327000      0.000014
   1.327500      0.000014
   1.328000      0.000014
   1.328500      0.000014
   1.329000      0.000015
   1.329500      0.000015
   1.330000      0.000015
   1.330500      0.000015
   1.331000      0.000015
   1.331500      0.000016
   1.332000      0.000016
   1.332500      0.000016
   1.333000      0.000016
   1.333500      0.000016
   1.334000      0.000016
   1.334500      0.000016
   1.335000      0.000016
   1.335500      0.000016
   1.336000      0.000016
   1.336500      0.000016
   1.337000      0.000016
   1.337500      0.000016
   1.338000      0.000016
   1.338500      0.000016
   1.339000      0.000015
   1.339500      0.000015
   1.340000      0.000015
   1.340500      0.000015
   1.341000      0.000015
   1.341500      0.000014
   1.342000      0.000014
   1.342500      0.000014
   1.343000      0.000014
   1.343500      0.000013
   1.344000      0.000013
   1.344500      0.000013
   1.345000      0.000013
   1.345500      0.000012
   1.346000      0.000012
   1.346500      0.000012
   1.347000      0.000012
   1.347500      0.000011
   1.348000      0.000011
   1.348500      0.000011
   1.349000      0.000011
   1.349500      0.000010
   1.350000      0.000010
   1.350500      0.000010
   1.351000      0.000010
   1.351500      0.000009
   1.352000      0.000009
   1.352500      0.000009
   1.353000      0.000009
   1.353500      0.000009
   1.354000      0.000008
   1.354500      0.000008
   1.355000      0.000008
   1.355500      0.000008
   1.356000      0.000008
   1.356500      0.000008
   1.357000      0.000007
   1.357500      0.000007
   1.358000      0.000007
   1.358500      0.000007
   1.359000      0.000007
   1.359500      0.000007
   1.360000      0.000007
   1.360500      0.000007
   1.361000      0.000006
   1.361500      0.000006
   1.362000      0.000006
   1.362500      0.000006
   1.363000      0.000006
   1.363500      0.000006
   1.364000      0.000006
   1.364500      0.000006
   1.365000      0.000006
   1.365500      0.000006
   1.366000      0.000006
   1.366500      0.000005
   1.367000      0.000005
   1.367500      0.000005
   1.368000      0.000005
   1.368500      0.000005
   1.369000      0.000005
   1.369500      0.000005
   1.370000      0.000005
   1.370500      0.000005
   1.371000      0.000005
   1.371500      0.000005
   1.372000      0.000005
   1.372500      0.000005
   1.373000      0.000005
   1.373500      0.000005
   1.374000      0.000005
   1.374500      0.000005
   1.375000      0.000005
   1.375500      0.000005
   1.376000      0.000005
   1.376500      0.000005
   1.377000      0.000005
   1.377500      0.000005
   1.378000      0.000005
   1.378500      0.000005
   1.379000      0.000005
   1.379500      0.000005
   1.380000      0.000005
   1.380500      0.000005
   1.381000      0.000005
   1.381500      0.000005
   1.382000      0.000005
   1.382500      0.000005
   1.383000      0.000005
   1.383500      0.000005
   1.384000      0.000005
   1.384500      0.000005
   1.385000      0.000005
   1.385500      0.000005
   1.386000      0.000005
   1.386500      0.000005
   1.387000      0.000005
   1.387500      0.000005
   1.388000      0.000005
   1.388500      0.000005
   1.389000      0.000005
   1.389500      0.000005
   1.390000      0.000005
   1.390500      0.000005
   1.391000      0.000005
   1.391500      0.000005
   1.392000      0.000005
   1.392500      0.000005
   1.393000      0.000005
   1.393500      0.000006
   1.394000      0.000006
   1.394500      0.000006
   1.395000      0.000006
   1.395500      0.000006
   1.396000      0.000006
   1.396500      0.000006
   1.397000      0.000006
   1.397500      0.000006
   1.398000      0.000006
   1.398500      0.000006
   1.399000      0.000007
   1.399500      0.000007
   1.400000      0.000007
   1.400500      0.000007
   1.401000      0.000007
   1.401500      0.000007
   1.402000      0.000007
   1.402500      0.000008
   1.403000      0.000008
   1.403500      0.000008
   1.404000      0.000008
   1.404500      0.000008
   1.405000      0.000008
   1.405500      0.000009
   1.406000      0.000009
   1.406500      0.000009
   1.407000      0.000009
   1.407500      0.000010
   1.408000      0.000010
   1.408500      0.000010
   1.409000      0.000011
   1.409500      0.000011
   1.410000      0.000011
   1.410500      0.000012
   1.411000      0.000012
   1.411500      0.000012
   1.412000      0.000013
   1.412500      0.000013
   1.413000      0.000013
   1.413500      0.000014
   1.414000      0.000014
   1.414500      0.000015
   1.415000      0.000015
   1.415500      0.000016
   1.416000      0.000017
   1.416500      0.000017
   1.417000      0.000018
   1.417500      0.000018
   1.418000      0.000019
   1.418500      0.000020
   1.419000      0.000021
   1.419500      0.000021
   1.420000      0.000022
   1.420500      0.000023
   1.421000      0.000024
   1.421500      0.000025
   1.422000      0.000026
   1.422500      0.000027
   1.423000      0.000028
   1.423500      0.000029
   1.424000      0.000030
   1.424500      0.000031
   1.425000      0.000032
   1.425500      0.000033
   1.426000      0.000034
   1.426500      0.000035
   1.427000      0.000036
   1.427500      0.000037
   1.428000      0.000037
   1.428500      0.000038
   1.429000      0.000039
   1.429500      0.000040
   1.430000      0.000040
   1.430500      0.000041
   1.431000      0.000041
   1.431500      0.000041
   1.432000      0.000041
   1.432500      0.000041
   1.433000      0.000041
   1.433500      0.000041
   1.434000      0.000041
   1.434500      0.000040
   1.435000      0.000040
   1.435500      0.000039
   1.436000      0.000038
   1.436500      0.000038
   1.437000      0.000037
   1.437500      0.000036
   1.438000      0.000035
   1.438500      0.000034
   1.439000      0.000034
   1.439500      0.000033
   1.440000      0.000032
   1.440500      0.000031
   1.441000      0.000030
   1.441500      0.000029
   1.442000      0.000028
   1.442500      0.000028
   1.443000      0.000027
   1.443500      0.000026
   1.444000      0.000025
   1.444500      0.000024
   1.445000      0.000024
   1.445500      0.000023
   1.446000      0.000022
   1.446500      0.000022
   1.447000      0.000021
   1.447500      0.000021
   1.448000      0.000020
   1.448500      0.000019
   1.449000      0.000019
   1.449500      0.000018
   1.450000      0.000018
   1.450500      0.000017
   1.451000      0.000017
   1.451500      0.000017
   1.452000      0.000016
   1.452500      0.000016
   1.453000      0.000015
   1.453500      0.000015
   1.454000      0.000015
   1.454500      0.000014
   1.455000      0.000014
   1.455500      0.000014
   1.456000      0.000014
   1.456500      0.000013
   1.457000      0.000013
   1.457500      0.000013
   1.458000      0.000013
   1.458500      0.000012
   1.459000      0.000012
   1.459500      0.000012
   1.460000      0.000012
   1.460500      0.000012
   1.461000      0.000011
   1.461500      0.000011
   1.462000      0.000011
   1.462500      0.000011
   1.463000      0.000011
   1.463500      0.000011
   1.464000      0.000011
   1.464500      0.000010
   1.465000      0.000010
   1.465500      0.000010
   1.466000      0.000010
   1.466500      0.000010
   1.467000      0.000010
   1.467500      0.000010
   1.468000      0.000010
   1.468500      0.000010
   1.469000      0.000010
   1.469500      0.000010
   1.470000      0.000009
   1.470500      0.000009
   1.471000      0.000009
   1.471500      0.000009
   1.472000      0.000009
   1.472500      0.000009
   1.473000      0.000009
   1.473500      0.000009
   1.474000      0.000009
   1.474500      0.000009
   1.475000      0.000009
   1.475500      0.000009
   1.476000      0.000009
   1.476500      0.000009
   1.477000      0.000009
   1.477500      0.000009
   1.478000      0.000009
   1.478500      0.000009
   1.479000      0.000009
   1.479500      0.000009
   1.480000      0.000009
   1.480500      0.000009
   1.481000      0.000009
   1.481500      0.000009
   1.482000      0.000009
   1.482500      0.000009
   1.483000      0.000009
   1.483500      0.000009
   1.484000      0.000009
   1.484500      0.000009
   1.485000      0.000009
   1.485500      0.000009
   1.486000      0.000009
   1.486500      0.000009
   1.487000      0.000010
   1.487500      0.000010
   1.488000      0.000010
   1.488500      0.000010
   1.489000      0.000010
   1.489500      0.000010
   1.490000      0.000010
   1.490500      0.000010
   1.491000      0.000010
   1.491500      0.000010
   1.492000      0.000010
   1.492500      0.000010
   1.493000      0.000011
   1.493500      0.000011
   1.494000      0.000011
   1.494500      0.000011
   1.495000      0.000011
   1.495500      0.000011
   1.496000      0.000011
   1.496500      0.000012
   1.497000      0.000012
   1.497500      0.000012
   1.498000      0.000012
   1.498500      0.000012
   1.499000      0.000012
   1.499500      0.000013
   1.500000      0.000013
   1.500500      0.000013
   1.501000      0.000013
   1.501500      0.000014
   1.502000      0.000014
   1.502500      0.000014
   1.503000      0.000014
   1.503500      0.000015
   1.504000      0.000015
   1.504500      0.000015
   1.505000      0.000015
   1.505500      0.000016
   1.506000      0.000016
   1.506500      0.000017
   1.507000      0.000017
   1.507500      0.000017
   1.508000      0.000018
   1.508500      0.000018
   1.509000      0.000019
   1.509500      0.000019
   1.510000      0.000019
   1.510500      0.000020
   1.511000      0.000020
   1.511500      0.000021
   1.512000      0.000022
   1.512500      0.000022
   1.513000      0.000023
   1.513500      0.000023
   1.514000      0.000024
   1.514500      0.000025
   1.515000      0.000026
   1.515500      0.000026
   1.516000      0.000027
   1.516500      0.000028
   1.517000      0.000029
   1.517500      0.000030
   1.518000      0.000031
   1.518500      0.000032
   1.519000      0.000033
   1.519500      0.000034
   1.520000      0.000035
   1.520500      0.000037
   1.521000      0.000038
   1.521500      0.000039
   1.522000      0.000041
   1.522500      0.000042
   1.523000      0.000044
   1.523500      0.000046
   1.524000      0.000047
   1.524500      0.000049
   1.525000      0.000051
   1.525500      0.000053
   1.526000      0.000055
   1.526500      0.000058
   1.527000      0.000060
   1.527500      0.000063
   1.528000      0.000065
   1.528500      0.000068
   1.529000      0.000071
   1.529500      0.000074
   1.530000      0.000077
   1.530500      0.000080
   1.531000      0.000083
   1.531500      0.000087
   1.532000      0.000090
   1.532500      0.000093
   1.533000      0.000097
   1.533500      0.000100
   1.534000      0.000104
   1.534500      0.000107
   1.535000      0.000111
   1.535500      0.000114
   1.536000      0.000117
   1.536500      0.000120
   1.537000      0.000123
   1.537500      0.000125
   1.538000      0.000127
   1.538500      0.000129
   1.539000      0.000130
   1.539500      0.000131
   1.540000      0.000131
   1.540500      0.000131
   1.541000      0.000131
   1.541500      0.000130
   1.542000      0.000129
   1.542500      0.000127
   1.543000      0.000125
   1.543500      0.000123
   1.544000      0.000121
   1.544500      0.000118
   1.545000      0.000115
   1.545500      0.000113
   1.546000      0.000110
   1.546500      0.000107
   1.547000      0.000104
   1.547500      0.000101
   1.548000      0.000097
   1.548500      0.000095
   1.549000      0.000092
   1.549500      0.000089
   1.550000      0.000086
   1.550500      0.000083
   1.551000      0.000081
   1.551500      0.000078
   1.552000      0.000076
   1.552500      0.000073
   1.553000      0.000071
   1.553500      0.000069
   1.554000      0.000067
   1.554500      0.000065
   1.555000      0.000063
   1.555500      0.000061
   1.556000      0.000059
   1.556500      0.000058
   1.557000      0.000056
   1.557500      0.000055
   1.558000      0.000053
   1.558500      0.000052
   1.559000      0.000050
   1.559500      0.000049
   1.560000      0.000048
   1.560500      0.000047
   1.561000      0.000045
   1.561500      0.000044
   1.562000      0.000043
   1.562500      0.000042
   1.563000      0.000041
   1.563500      0.000040
   1.564000      0.000039
   1.564500      0.000039
   1.565000      0.000038
   1.565500      0.000037
   1.566000      0.000036
   1.566500      0.000035
   1.567000      0.000035
   1.567500      0.000034
   1.568000      0.000033
   1.568500      0.000033
   1.569000      0.000032
   1.569500      0.000031
   1.570000      0.000031
   1.570500      0.000030
   1.571000      0.000030
   1.571500      0.000029
   1.572000      0.000029
   1.572500      0.000028
   1.573000      0.000028
   1.573500      0.000027
   1.574000      0.000027
   1.574500      0.000027
   1.575000      0.000026
   1.575500      0.000026
   1.576000      0.000026
   1.576500      0.000025
   1.577000      0.000025
   1.577500      0.000025
   1.578000      0.000024
   1.578500      0.000024
   1.579000      0.000024
   1.579500      0.000023
   1.580000      0.000023
   1.580500      0.000023
   1.581000      0.000023
   1.581500      0.000023
   1.582000      0.000022
   1.582500      0.000022
   1.583000      0.000022
   1.583500      0.000022
   1.584000      0.000022
   1.584500      0.000021
   1.585000      0.000021
   1.585500      0.000021
   1.586000      0.000021
   1.586500      0.000021
   1.587000      0.000021
   1.587500      0.000020
   1.588000      0.000020
   1.588500      0.000020
   1.589000      0.000020
   1.589500      0.000020
   1.590000      0.000020
   1.590500      0.000020
   1.591000      0.000020
   1.591500      0.000020
   1.592000      0.000019
   1.592500      0.000019
   1.593000      0.000019
   1.593500      0.000019
   1.594000      0.000019
   1.594500      0.000019
   1.595000      0.000019
   1.595500      0.000019
   1.596000      0.000019
   1.596500      0.000019
   1.597000      0.000019
   1.597500      0.000019
   1.598000      0.000019
   1.598500      0.000019
   1.599000      0.000019
   1.599500      0.000019
   1.600000      0.000019
   1.600500      0.000019
   1.601000      0.000019
   1.601500      0.000019
   1.602000      0.000019
   1.602500      0.000019
   1.603000      0.000019
   1.603500      0.000019
   1.604000      0.000019
   1.604500      0.000019
   1.605000      0.000019
   1.605500      0.000019
   1.606000      0.000019
   1.606500      0.000019
   1.607000      0.000019
   1.607500      0.000019
   1.608000      0.000019
   1.608500      0.000019
   1.609000      0.000019
   1.609500      0.000019
   1.610000      0.000019
   1.610500      0.000019
   1.611000      0.000019
   1.611500      0.000019
   1.612000      0.000019
   1.612500      0.000019
   1.613000      0.000020
   1.613500      0.000020
   1.614000      0.000020
   1.614500      0.000020
   1.615000      0.000020
   1.615500      0.000020
   1.616000      0.000020
   1.616500      0.000020
   1.617000      0.000020
   1.617500      0.000020
   1.618000      0.000021
   1.618500      0.000021
   1.619000      0.000021
   1.619500      0.000021
   1.620000      0.000021
   1.620500      0.000021
   1.621000      0.000021
   1.621500      0.000021
   1.622000      0.000022
   1.622500      0.000022
   1.623000      0.000022
   1.623500      0.000022
   1.624000      0.000022
   1.624500      0.000022
   1.625000      0.000023
   1.625500      0.000023
   1.626000      0.000023
   1.626500      0.000023
   1.627000      0.000023
   1.627500      0.000023
   1.628000      0.000024
   1.628500      0.000024
   1.629000      0.000024
   1.629500      0.000024
   1.630000      0.000024
   1.630500      0.000025
   1.631000      0.000025
   1.631500      0.000025
   1.632000      0.000025
   1.632500      0.000026
   1.633000      0.000026
   1.633500      0.000026
   1.634000      0.000026
   1.634500      0.000027
   1.635000      0.000027
   1.635500      0.000027
   1.636000      0.000028
   1.636500      0.000028
   1.637000      0.000028
   1.637500      0.000028
   1.638000      0.000029
   1.638500      0.000029
   1.639000      0.000029
   1.639500      0.000030
   1.640000      0.000030
   1.640500      0.000031
   1.641000      0.000031
   1.641500      0.000031
   1.642000      0.000032
   1.642500      0.000032
   1.643000      0.000032
   1.643500      0.000033
   1.644000      0.000033
   1.644500      0.000034
   1.645000      0.000034
   1.645500      0.000035
   1.646000      0.000035
   1.646500      0.000036
   1.647000      0.000036
   1.647500      0.000037
   1.648000      0.000037
   1.648500      0.000038
   1.649000      0.000038
   1.649500      0.000039
   1.650000      0.000039
   1.650500      0.000040
   1.651000      0.000040
   1.651500      0.000041
   1.652000      0.000042
   1.652500      0.000042
   1.653000      0.000043
   1.653500      0.000044
   1.654000      0.000044
   1.654500      0.000045
   1.655000      0.000046
   1.655500      0.000046
   1.656000      0.000047
   1.656500      0.000048
   1.657000      0.000048
   1.657500      0.000049
   1.658000      0.000050
   1.658500      0.000051
   1.659000      0.000052
   1.659500      0.000053
   1.660000      0.000053
   1.660500      0.000054
   1.661000      0.000055
   1.661500      0.000056
   1.662000      0.000057
   1.662500      0.000058
   1.663000      0.000059
   1.663500      0.000060
   1.664000      0.000061
   1.664500      0.000062
   1.665000      0.000063
   1.665500      0.000064
   1.666000      0.000066
   1.666500      0.000067
   1.667000      0.000068
   1.667500      0.000069
   1.668000      0.000070
   1.668500      0.000072
   1.669000      0.000073
   1.669500      0.000074
   1.670000      0.000075
   1.670500      0.000077
   1.671000      0.000078
   1.671500      0.000079
   1.672000      0.000080
   1.672500      0.000081
   1.673000      0.000082
   1.673500      0.000083
   1.674000      0.000084
   1.674500      0.000084
   1.675000      0.000085
   1.675500      0.000085
   1.676000      0.000086
   1.676500      0.000086
   1.677000      0.000086
   1.677500      0.000085
   1.678000      0.000085
   1.678500      0.000084
   1.679000      0.000084
   1.679500      0.000083
   1.680000      0.000082
   1.680500      0.000080
   1.681000      0.000079
   1.681500      0.000078
   1.682000      0.000076
   1.682500      0.000075
   1.683000      0.000073
   1.683500      0.000071
   1.684000      0.000070
   1.684500      0.000068
   1.685000      0.000067
   1.685500      0.000065
   1.686000      0.000063
   1.686500      0.000062
   1.687000      0.000061
   1.687500      0.000059
   1.688000      0.000058
   1.688500      0.000057
   1.689000      0.000056
   1.689500      0.000055
   1.690000      0.000054
   1.690500      0.000053
   1.691000      0.000052
   1.691500      0.000052
   1.692000      0.000051
   1.692500      0.000051
   1.693000      0.000051
   1.693500      0.000050
   1.694000      0.000050
   1.694500      0.000050
   1.695000      0.000050
   1.695500      0.000050
   1.696000      0.000051
   1.696500      0.000051
   1.697000      0.000052
   1.697500      0.000053
   1.698000      0.000053
   1.698500      0.000054
   1.699000      0.000055
   1.699500      0.000057
   1.700000      0.000058
   1.700500      0.000060
   1.701000      0.000061
   1.701500      0.000063
   1.702000      0.000065
   1.702500      0.000067
   1.703000      0.000069
   1.703500      0.000071
   1.704000      0.000074
   1.704500      0.000076
   1.705000      0.000078
   1.705500      0.000080
   1.706000      0.000082
   1.706500      0.000083
   1.707000      0.000084
   1.707500      0.000084
   1.708000      0.000083
   1.708500      0.000082
   1.709000      0.000080
   1.709500      0.000078
   1.710000      0.000075
   1.710500      0.000072
   1.711000      0.000068
   1.711500      0.000064
   1.712000      0.000061
   1.712500      0.000057
   1.713000      0.000053
   1.713500      0.000049
   1.714000      0.000046
   1.714500      0.000042
   1.715000      0.000039
   1.715500      0.000037
   1.716000      0.000034
   1.716500      0.000032
   1.717000      0.000030
   1.717500      0.000028
   1.718000      0.000026
   1.718500      0.000024
   1.719000      0.000023
   1.719500      0.000021
   1.720000      0.000020
   1.720500      0.000019
   1.721000      0.000018
   1.721500      0.000017
   1.722000      0.000017
   1.722500      0.000016
   1.723000      0.000015
   1.723500      0.000015
   1.724000      0.000014
   1.724500      0.000014
   1.725000      0.000013
   1.725500      0.000013
   1.726000      0.000013
   1.726500      0.000012
   1.727000      0.000012
   1.727500      0.000012
   1.728000      0.000012
   1.728500      0.000012
   1.729000      0.000012
   1.729500      0.000012
   1.730000      0.000012
   1.730500      0.000012
   1.731000      0.000012
   1.731500      0.000012
   1.732000      0.000012
   1.732500      0.000012
   1.733000      0.000012
   1.733500      0.000012
   1.734000      0.000013
   1.734500      0.000013
   1.735000      0.000013
   1.735500      0.000014
   1.736000      0.000014
   1.736500      0.000014
   1.737000      0.000015
   1.737500      0.000016
   1.738000      0.000016
   1.738500      0.000017
   1.739000      0.000018
   1.739500      0.000018
   1.740000      0.000019
   1.740500      0.000020
   1.741000      0.000021
   1.741500      0.000022
   1.742000      0.000023
   1.742500      0.000023
   1.743000      0.000024
   1.743500      0.000024
   1.744000      0.000024
   1.744500      0.000025
   1.745000      0.000024
   1.745500      0.000024
   1.746000      0.000023
   1.746500      0.000022
   1.747000      0.000021
   1.747500      0.000020
   1.748000      0.000019
   1.748500      0.000018
   1.749000      0.000016
   1.749500      0.000015
   1.750000      0.000014
   1.750500      0.000013
   1.751000      0.000012
   1.751500      0.000011
   1.752000      0.000010
   1.752500      0.000009
   1.753000      0.000009
   1.753500      0.000008
   1.754000      0.000008
   1.754500      0.000007
   1.755000      0.000007
   1.755500      0.000006
   1.756000      0.000006
   1.756500      0.000005
   1.757000      0.000005
   1.757500      0.000005
   1.758000      0.000005
   1.758500      0.000004
   1.759000      0.000004
   1.759500      0.000004
   1.760000      0.000004
   1.760500      0.000004
   1.761000      0.000004
   1.761500      0.000003
   1.762000      0.000003
   1.762500      0.000003
   1.763000      0.000003
   1.763500      0.000003
   1.764000      0.000003
   1.764500      0.000003
   1.765000      0.000003
   1.765500      0.000003
   1.766000      0.000003
   1.766500      0.000003
   1.767000      0.000003
   1.767500      0.000003
   1.768000      0.000003
   1.768500      0.000003
   1.769000      0.000003
   1.769500      0.000003
   1.770000      0.000003
   1.770500      0.000003
   1.771000      0.000003
   1.771500      0.000003
   1.772000      0.000003
   1.772500      0.000003
   1.773000      0.000003
   1.773500      0.000003
   1.774000      0.000003
   1.774500      0.000003
   1.775000      0.000003
   1.775500      0.000003
   1.776000      0.000003
   1.776500      0.000003
   1.777000      0.000003
   1.777500      0.000003
   1.778000      0.000003
   1.778500      0.000003
   1.779000      0.000003
   1.779500      0.000003
   1.780000      0.000003
   1.780500      0.000003
   1.781000      0.000003
   1.781500      0.000003
   1.782000      0.000003
   1.782500      0.000003
   1.783000      0.000003
   1.783500      0.000003
   1.784000      0.000003
   1.784500      0.000003
   1.785000      0.000003
   1.785500      0.000003
   1.786000      0.000003
   1.786500      0.000003
   1.787000      0.000003
   1.787500      0.000003
   1.788000      0.000002
   1.788500      0.000002
   1.789000      0.000002
   1.789500      0.000002
   1.790000      0.000002
   1.790500      0.000002
   1.791000      0.000002
   1.791500      0.000002
   1.792000      0.000002
   1.792500      0.000002
   1.793000      0.000002
   1.793500      0.000002
   1.794000      0.000002
   1.794500      0.000001
   1.795000      0.000001
   1.795500      0.000001
   1.796000      0.000001
   1.796500      0.000001
   1.797000      0.000001
   1.797500      0.000001
   1.798000      0.000001
   1.798500      0.000001
   1.799000      0.000001
   1.799500      0.000001
   1.800000      0.000001
   1.800500      0.000001
   1.801000      0.000001
   1.801500      0.000001
   1.802000      0.000001
   1.802500      0.000001
   1.803000      0.000001
   1.803500      0.000001
   1.804000      0.000001
   1.804500      0.000001
   1.805000      0.000001
   1.805500      0.000001
   1.806000      0.000001
   1.806500      0.000001
   1.807000      0.000001
   1.807500      0.000001
   1.808000      0.000001
   1.808500      0.000001
   1.809000      0.000001
   1.809500      0.000001
   1.810000      0.000001
   1.810500      0.000001
   1.811000      0.000001
   1.811500      0.000001
   1.812000      0.000001
   1.812500      0.000001
   1.813000      0.000001
   1.813500      0.000001
   1.814000      0.000001
   1.814500      0.000001
   1.815000      0.000001
   1.815500      0.000001
   1.816000      0.000002
   1.816500      0.000002
   1.817000      0.000002
   1.817500      0.000002
   1.818000      0.000002
   1.818500      0.000002
   1.819000      0.000002
   1.819500      0.000002
   1.820000      0.000002
   1.820500      0.000003
   1.821000      0.000003
   1.821500      0.000003
   1.822000      0.000003
   1.822500      0.000003
   1.823000      0.000003
   1.823500      0.000004
   1.824000      0.000004
   1.824500      0.000004
   1.825000      0.000004
   1.825500      0.000004
   1.826000      0.000004
   1.826500      0.000004
   1.827000      0.000004
   1.827500      0.000004
   1.828000      0.000004
   1.828500      0.000004
   1.829000      0.000004
   1.829500      0.000003
   1.830000      0.000003
   1.830500      0.000003
   1.831000      0.000003
   1.831500      0.000003
   1.832000      0.000002
   1.832500      0.000002
   1.833000      0.000002
   1.833500      0.000002
   1.834000      0.000002
   1.834500      0.000002
   1.835000      0.000002
   1.835500      0.000001
   1.836000      0.000001
   1.836500      0.000001
   1.837000      0.000001
   1.837500      0.000001
   1.838000      0.000001
   1.838500      0.000001
   1.839000      0.000001
   1.839500      0.000001
   1.840000      0.000001
   1.840500      0.000001
   1.841000      0.000001
   1.841500      0.000001
   1.842000      0.000001
   1.842500      0.000001
   1.843000      0.000001
   1.843500      0.000001
   1.844000      0.000001
   1.844500      0.000001
   1.845000      0.000001
   1.845500      0.000001
   1.846000      0.000001
   1.846500      0.000001
   1.847000      0.000001
   1.847500      0.000001
   1.848000      0.000001
   1.848500      0.000001
   1.849000      0.000001
   1.849500      0.000001
   1.850000      0.000001
   1.850500      0.000001
   1.851000      0.000001
   1.851500      0.000001
   1.852000      0.000001
   1.852500      0.000001
   1.853000      0.000001
   1.853500      0.000001
   1.854000      0.000001
   1.854500      0.000001
   1.855000      0.000001
   1.855500      0.000001
   1.856000      0.000001
   1.856500      0.000001
   1.857000      0.000001
   1.857500      0.000001
   1.858000      0.000001
   1.858500      0.000001
   1.859000      0.000001
   1.859500      0.000001
   1.860000      0.000001
   1.860500      0.000001
   1.861000      0.000001
   1.861500      0.000001
   1.862000      0.000001
   1.862500      0.000001
   1.863000      0.000001
   1.863500      0.000001
   1.864000      0.000001
   1.864500      0.000001
   1.865000      0.000001
   1.865500      0.000001
   1.866000      0.000001
   1.866500      0.000001
   1.867000      0.000001
   1.867500      0.000001
   1.868000      0.000001
   1.868500      0.000002
   1.869000      0.000002
   1.869500      0.000002
   1.870000      0.000002
   1.870500      0.000002
   1.871000      0.000002
   1.871500      0.000003
   1.872000      0.000003
   1.872500      0.000003
   1.873000      0.000003
   1.873500      0.000003
   1.874000      0.000004
   1.874500      0.000004
   1.875000      0.000004
   1.875500      0.000005
   1.876000      0.000005
   1.876500      0.000005
   1.877000      0.000005
   1.877500      0.000005
   1.878000      0.000005
   1.878500      0.000005
   1.879000      0.000005
   1.879500      0.000005
   1.880000      0.000005
   1.880500      0.000005
   1.881000      0.000004
   1.881500      0.000004
   1.882000      0.000004
   1.882500      0.000004
   1.883000      0.000004
   1.883500      0.000003
   1.884000      0.000003
   1.884500      0.000003
   1.885000      0.000003
   1.885500      0.000003
   1.886000      0.000003
   1.886500      0.000002
   1.887000      0.000002
   1.887500      0.000002
   1.888000      0.000002
   1.888500      0.000002
   1.889000      0.000002
   1.889500      0.000002
   1.890000      0.000002
   1.890500      0.000002
   1.891000      0.000002
   1.891500      0.000002
   1.892000      0.000002
   1.892500      0.000002
   1.893000      0.000002
   1.893500      0.000002
   1.894000      0.000001
   1.894500      0.000001
   1.895000      0.000001
   1.895500      0.000001
   1.896000      0.000001
   1.896500      0.000001
   1.897000      0.000001
   1.897500      0.000001
   1.898000      0.000001
   1.898500      0.000001
   1.899000      0.000001
   1.899500      0.000001
   1.900000      0.000001
   1.900500      0.000001
   1.901000      0.000001
   1.901500      0.000001
   1.902000      0.000001
   1.902500      0.000001
   1.903000      0.000001
   1.903500      0.000001
   1.904000      0.000001
   1.904500      0.000001
   1.905000      0.000001
   1.905500      0.000001
   1.906000      0.000001
   1.906500      0.000001
   1.907000      0.000001
   1.907500      0.000001
   1.908000      0.000001
   1.908500      0.000001
   1.909000      0.000001
   1.909500      0.000001
   1.910000      0.000001
   1.910500      0.000001
   1.911000      0.000001
   1.911500      0.000001
   1.912000      0.000001
   1.912500      0.000001
   1.913000      0.000001
   1.913500      0.000001
   1.914000      0.000001
   1.914500      0.000001
   1.915000      0.000001
   1.915500      0.000001
   1.916000      0.000001
   1.916500      0.000001
   1.917000      0.000001
   1.917500      0.000001
   1.918000      0.000001
   1.918500      0.000001
   1.919000      0.000001
   1.919500      0.000001
   1.920000      0.000001
   1.920500      0.000001
   1.921000      0.000001
   1.921500      0.000001
   1.922000      0.000001
   1.922500      0.000001
   1.923000      0.000000
   1.923500      0.000000
   1.924000      0.000000
   1.924500      0.000000
   1.925000      0.000000
   1.925500      0.000000
   1.926000      0.000000
   1.926500      0.000000
   1.927000      0.000000
   1.927500      0.000000
   1.928000      0.000000
   1.928500      0.000000
   1.929000      0.000000
   1.929500      0.000000
   1.930000      0.000000
   1.930500      0.000000
   1.931000      0.000000
   1.931500      0.000000
   1.932000      0.000000
   1.932500      0.000000
   1.933000      0.000000
   1.933500      0.000000
   1.934000      0.000000
   1.934500      0.000000
   1.935000      0.000000
   1.935500      0.000000
   1.936000      0.000000
   1.936500      0.000000
   1.937000      0.000000
   1.937500      0.000000
   1.938000      0.000000
   1.938500      0.000000
   1.939000      0.000000
   1.939500      0.000000
   1.940000      0.000000
   1.940500      0.000000
   1.941000      0.000000
   1.941500      0.000000
   1.942000      0.000000
   1.942500      0.000000
   1.943000      0.000000
   1.943500      0.000000
   1.944000      0.000000
   1.944500      0.000000
   1.945000      0.000000
   1.945500      0.000000
   1.946000      0.000000
   1.946500      0.000000
   1.947000      0.000000
   1.947500      0.000000
   1.948000      0.000000
   1.948500      0.000000
   1.949000      0.000000
   1.949500      0.000000
   1.950000      0.000000
   1.950500      0.000000
   1.951000      0.000000
   1.951500      0.000000
   1.952000      0.000000
   1.952500      0.000000
   1.953000      0.000000
   1.953500      0.000000
   1.954000      0.000000
   1.954500      0.000000
   1.955000      0.000000
   1.955500      0.000000
   1.956000      0.000000
   1.956500      0.000000
   1.957000      0.000000
   1.957500      0.000000
   1.958000      0.000000
   1.958500      0.000000
   1.959000      0.000000
   1.959500      0.000000
   1.960000      0.000000
   1.960500      0.000000
   1.961000      0.000000
   1.961500      0.000000
   1.962000      0.000000
   1.962500      0.000000
   1.963000      0.000000
   1.963500      0.000000
   1.964000      0.000000
   1.964500      0.000000
   1.965000      0.000000
   1.965500      0.000000
   1.966000      0.000000
   1.966500      0.000000
   1.967000      0.000000
   1.967500      0.000000
   1.968000      0.000000
   1.968500      0.000000
   1.969000      0.000000
   1.969500      0.000001
   1.970000      0.000001
   1.970500      0.000001
   1.971000      0.000001
   1.971500      0.000001
   1.972000      0.000001
   1.972500      0.000001
   1.973000      0.000001
   1.973500      0.000001
   1.974000      0.000001
   1.974500      0.000001
   1.975000      0.000001
   1.975500      0.000001
   1.976000      0.000001
   1.976500      0.000001
   1.977000      0.000001
   1.977500      0.000001
   1.978000      0.000001
   1.978500      0.000001
   1.979000      0.000001
   1.979500      0.000001
   1.980000      0.000001
   1.980500      0.000001
   1.981000      0.000001
   1.981500      0.000002
   1.982000      0.000002
   1.982500      0.000002
   1.983000      0.000002
   1.983500      0.000002
   1.984000      0.000002
   1.984500      0.000002
   1.985000      0.000002
   1.985500      0.000002
   1.986000      0.000003
   1.986500      0.000003
   1.987000      0.000003
   1.987500      0.000003
   1.988000      0.000003
   1.988500      0.000004
   1.989000      0.000004
   1.989500      0.000004
   1.990000      0.000005
   1.990500      0.000005
   1.991000      0.000005
   1.991500      0.000006
   1.992000      0.000006
   1.992500      0.000007
   1.993000      0.000007
   1.993500      0.000008
   1.994000      0.000008
   1.994500      0.000009
   1.995000      0.000010
   1.995500      0.000010
   1.996000      0.000011
   1.996500      0.000012
   1.997000      0.000014
   1.997500      0.000015
   1.998000      0.000016
   1.998500      0.000018
   1.999000      0.000019
   1.999500      0.000021
   2.000000      0.000023
   2.000500      0.000025
   2.001000      0.000028
   2.001500      0.000031
   2.002000      0.000034
   2.002500      0.000038
   2.003000      0.000042
   2.003500      0.000046
   2.004000      0.000051
   2.004500      0.000057
   2.005000      0.000063
   2.005500      0.000070
   2.006000      0.000078
   2.006500      0.000088
   2.007000      0.000098
   2.007500      0.000110
   2.008000      0.000123
   2.008500      0.000139
   2.009000      0.000156
   2.009500      0.000176
   2.010000      0.000199
   2.010500      0.000225
   2.011000      0.000255
   2.011500      0.000290
   2.012000      0.000330
   2.012500      0.000376
   2.013000      0.000430
   2.013500      0.000493
   2.014000      0.000565
   2.014500      0.000650
   2.015000      0.000748
   2.015500      0.000864
   2.016000      0.001000
   2.016500      0.001160
   2.017000      0.001348
   2.017500      0.001571
   2.018000      0.001836
   2.018500      0.002150
   2.019000      0.002525
   2.019500      0.002973
   2.020000      0.003510
   2.020500      0.004155
   2.021000      0.004933
   2.021500      0.005875
   2.022000      0.007016
   2.022500      0.008405
   2.023000      0.010100
   2.023500      0.012176
   2.024000      0.014724
   2.024500      0.017863
   2.025000      0.021741
   2.025500      0.026543
   2.026000      0.032506
   2.026500      0.039925
   2.027000      0.049170
   2.027500      0.060700
   2.028000      0.075077
   2.028500      0.092978
   2.029000      0.115197
   2.029500      0.142628
   2.030000      0.176216
   2.030500      0.216868
   2.031000      0.265290
   2.031500      0.321778
   2.032000      0.385957
   2.032500      0.456561
   2.033000      0.531348
   2.033500      0.607252
   2.034000      0.680803
   2.034500      0.748721
   2.035000      0.808486
   2.035500      0.858676
   2.036000      0.899006
   2.036500      0.930102
   2.037000      0.953169
   2.037500      0.969654
   2.038000      0.981000
   2.038500      0.988497
   2.039000      0.993219
   2.039500      0.996008
   2.040000      0.997502
   2.040500      0.998163
   2.041000      0.998317
   2.041500      0.998185
   2.042000      0.997915
   2.042500      0.997597
   2.043000      0.997285
   2.043500      0.997011
   2.044000      0.996787
   2.044500      0.996619
   2.045000      0.996506
   2.045500      0.996445
   2.046000      0.996430
   2.046500      0.996458
   2.047000      0.996525
   2.047500      0.996626
   2.048000      0.996758
   2.048500      0.996916
   2.049000      0.997097
   2.049500      0.997296
   2.050000      0.997508
   2.050500      0.997729
   2.051000      0.997952
   2.051500      0.998171
   2.052000      0.998380
   2.052500      0.998572
   2.053000      0.998742
   2.053500      0.998884
   2.054000      0.998992
   2.054500      0.999062
   2.055000      0.999091
   2.055500      0.999078
   2.056000      0.999021
   2.056500      0.998921
   2.057000      0.998781
   2.057500      0.998605
   2.058000      0.998397
   2.058500      0.998166
   2.059000      0.997918
   2.059500      0.997662
   2.060000      0.997409
   2.060500      0.997167
   2.061000      0.996947
   2.061500      0.996758
   2.062000      0.996608
   2.062500      0.996506
   2.063000      0.996457
   2.063500      0.996466
   2.064000      0.996534
   2.064500      0.996661
   2.065000      0.996844
   2.065500      0.997077
   2.066000      0.997353
   2.066500      0.997662
   2.067000      0.997990
   2.067500      0.998324
   2.068000      0.998648
   2.068500      0.998946
   2.069000      0.999204
   2.069500      0.999406
   2.070000      0.999541
   2.070500      0.999598
   2.071000      0.999571
   2.071500      0.999459
   2.072000      0.999263
   2.072500      0.998991
   2.073000      0.998655
   2.073500      0.998273
   2.074000      0.997865
   2.074500      0.997455
   2.075000      0.997071
   2.075500      0.996737
   2.076000      0.996480
   2.076500      0.996321
   2.077000      0.996276
   2.077500      0.996357
   2.078000      0.996564
   2.078500      0.996887
   2.079000      0.997307
   2.079500      0.997794
   2.080000      0.998305
   2.080500      0.998793
   2.081000      0.999204
   2.081500      0.999485
   2.082000      0.999590
   2.082500      0.999486
   2.083000      0.999160
   2.083500      0.998628
   2.084000      0.997941
   2.084500      0.997183
   2.085000      0.996475
   2.085500      0.995957
   2.086000      0.995773
   2.086500      0.996030
   2.087000      0.996741
   2.087500      0.997734
   2.088000      0.998526
   2.088500      0.998145
   2.089000      0.994915
   2.089500      0.986239
   2.090000      0.968496
   2.090500      0.937284
   2.091000      0.888299
   2.091500      0.818956
   2.092000      0.730291
   2.092500      0.627886
   2.093000      0.520706
   2.093500      0.418173
   2.094000      0.327307
   2.094500      0.251506
   2.095000      0.191025
   2.095500      0.144220
   2.096000      0.108693
   2.096500      0.082021
   2.097000      0.062098
   2.097500      0.047229
   2.098000      0.036111
   2.098500      0.027769
   2.099000      0.021481
   2.099500      0.016714
   2.100000      0.013081
   2.100500      0.010296
   2.101000      0.008148
   2.101500      0.006482
   2.102000      0.005183
   2.102500      0.004165
   2.103000      0.003362
   2.103500      0.002726
   2.104000      0.002220
   2.104500      0.001815
   2.105000      0.001490
   2.105500      0.001228
   2.106000      0.001015
   2.106500      0.000842
   2.107000      0.000701
   2.107500      0.000586
   2.108000      0.000491
   2.108500      0.000412
   2.109000      0.000348
   2.109500      0.000294
   2.110000      0.000249
   2.110500      0.000212
   2.111000      0.000180
   2.111500      0.000154
   2.112000      0.000132
   2.112500      0.000113
   2.113000      0.000097
   2.113500      0.000084
   2.114000      0.000072
   2.114500      0.000062
   2.115000      0.000054
   2.115500      0.000047
   2.116000      0.000041
   2.116500      0.000036
   2.117000      0.000031
   2.117500      0.000027
   2.118000      0.000024
   2.118500      0.000021
   2.119000      0.000018
   2.119500      0.000016
   2.120000      0.000014
   2.120500      0.000013
   2.121000      0.000011
   2.121500      0.000010
   2.122000      0.000009
   2.122500      0.000008
   2.123000      0.000007
   2.123500      0.000006
   2.124000      0.000006
   2.124500      0.000005
   2.125000      0.000004
   2.125500      0.000004
   2.126000      0.000004
   2.126500      0.000003
   2.127000      0.000003
   2.127500      0.000003
   2.128000      0.000002
   2.128500      0.000002
   2.129000      0.000002
   2.129500      0.000002
   2.130000      0.000002
   2.130500      0.000001
   2.131000      0.000001
   2.131500      0.000001
   2.132000      0.000001
   2.132500      0.000001
   2.133000      0.000001
   2.133500      0.000001
   2.134000      0.000001
   2.134500      0.000001
   2.135000      0.000001
   2.135500      0.000001
   2.136000      0.000000
   2.136500      0.000000
   2.137000      0.000000
   2.137500      0.000000
   2.138000      0.000000
   2.138500      0.000000
   2.139000      0.000000
   2.139500      0.000000
   2.140000      0.000000
   2.140500      0.000000
   2.141000      0.000000
   2.141500      0.000000
   2.142000      0.000000
   2.142500      0.000000
   2.143000      0.000000
   2.143500      0.000000
   2.144000      0.000000
   2.144500      0.000000
   2.145000      0.000000
   2.145500      0.000000
   2.146000      0.000000
   2.146500      0.000000
   2.147000      0.000000
   2.147500      0.000000
   2.148000      0.000000
   2.148500      0.000000
   2.149000      0.000000
   2.149500      0.000000
   2.150000      0.000000
   2.150500      0.000000
   2.151000      0.000000
   2.151500      0.000000
   2.152000      0.000000
   2.152500      0.000000
   2.153000      0.000000
   2.153500      0.000000
   2.154000      0.000000
   2.154500      0.000000
   2.155000      0.000000
   2.155500      0.000000
   2.156000      0.000000
   2.156500      0.000000
   2.157000      0.000000
   2.157500      0.000000
   2.158000      0.000000
   2.158500      0.000000
   2.159000      0.000000
   2.159500      0.000000
   2.160000      0.000000
   2.160500      0.000000
   2.161000      0.000000
   2.161500      0.000000
   2.162000      0.000000
   2.162500      0.000000
   2.163000      0.000000
   2.163500      0.000000
   2.164000      0.000000
   2.164500      0.000000
   2.165000      0.000000
   2.165500      0.000000
   2.166000      0.000000
   2.166500      0.000000
   2.167000      0.000000
   2.167500      0.000000
   2.168000      0.000000
   2.168500      0.000000
   2.169000      0.000000
   2.169500      0.000000
   2.170000      0.000000
   2.170500      0.000000
   2.171000      0.000000
   2.171500      0.000000
   2.172000      0.000000
   2.172500      0.000000
   2.173000      0.000000
   2.173500      0.000000
   2.174000      0.000000
   2.174500      0.000000
   2.175000      0.000000
   2.175500      0.000000
   2.176000      0.000000
   2.176500      0.000000
   2.177000      0.000000
   2.177500      0.000000
   2.178000      0.000000
   2.178500      0.000000
   2.179000      0.000000
   2.179500      0.000000
   2.180000      0.000000
   2.180500      0.000000
   2.181000      0.000000
   2.181500      0.000000
   2.182000      0.000000
   2.182500      0.000000
   2.183000      0.000000
   2.183500      0.000000
   2.184000      0.000000
   2.184500      0.000000
   2.185000      0.000000
   2.185500      0.000000
   2.186000      0.000000
   2.186500      0.000000
   2.187000      0.000000
   2.187500      0.000000
   2.188000      0.000000
   2.188500      0.000000
   2.189000      0.000000
   2.189500      0.000000
   2.190000      0.000000
   2.190500      0.000000
   2.191000      0.000000
   2.191500      0.000000
   2.192000      0.000000
   2.192500      0.000000
   2.193000      0.000000
   2.193500      0.000000
   2.194000      0.000000
   2.194500      0.000000
   2.195000      0.000000
   2.195500      0.000000
   2.196000      0.000000
   2.196500      0.000000
   2.197000      0.000000
   2.197500      0.000000
   2.198000      0.000000
   2.198500      0.000000
   2.199000      0.000000
   2.199500      0.000000
   2.200000      0.000000
   2.200500      0.000000
   2.201000      0.000000
   2.201500      0.000000
   2.202000      0.000000
   2.202500      0.000000
   2.203000      0.000000
   2.203500      0.000000
   2.204000      0.000000
   2.204500      0.000000
   2.205000      0.000000
   2.205500      0.000000
   2.206000      0.000000
   2.206500      0.000000
   2.207000      0.000000
   2.207500      0.000000
   2.208000      0.000000
   2.208500      0.000000
   2.209000      0.000000
   2.209500      0.000000
   2.210000      0.000000
   2.210500      0.000000
   2.211000      0.000000
   2.211500      0.000000
   2.212000      0.000000
   2.212500      0.000000
   2.213000      0.000000
   2.213500      0.000000
   2.214000      0.000000
   2.214500      0.000000
   2.215000      0.000000
   2.215500      0.000000
   2.216000      0.000000
   2.216500      0.000000
   2.217000      0.000000
   2.217500      0.000000
   2.218000      0.000000
   2.218500      0.000000
   2.219000      0.000000
   2.219500      0.000000
   2.220000      0.000000
   2.220500      0.000000
   2.221000      0.000000
   2.221500      0.000000
   2.222000      0.000000
   2.222500      0.000000
   2.223000      0.000000
   2.223500      0.000000
   2.224000      0.000000
   2.224500      0.000000
   2.225000      0.000000
   2.225500      0.000000
   2.226000      0.000000
   2.226500      0.000000
   2.227000      0.000000
   2.227500      0.000000
   2.228000      0.000000
   2.228500      0.000000
   2.229000      0.000000
   2.229500      0.000000
   2.230000      0.000000
   2.230500      0.000000
   2.231000      0.000000
   2.231500      0.000000
   2.232000      0.000000
   2.232500      0.000000
   2.233000      0.000000
   2.233500      0.000000
   2.234000      0.000000
   2.234500      0.000000
   2.235000      0.000000
   2.235500      0.000000
   2.236000      0.000000
   2.236500      0.000000
   2.237000      0.000000
   2.237500      0.000000
   2.238000      0.000000
   2.238500      0.000000
   2.239000      0.000000
   2.239500      0.000000
   2.240000      0.000000
   2.240500      0.000000
   2.241000      0.000000
   2.241500      0.000000
   2.242000      0.000000
   2.242500      0.000000
   2.243000      0.000000
   2.243500      0.000000
   2.244000      0.000000
   2.244500      0.000000
   2.245000      0.000000
   2.245500      0.000000
   2.246000      0.000000
   2.246500      0.000000
   2.247000      0.000000
   2.247500      0.000000
   2.248000      0.000000
   2.248500      0.000000
   2.249000      0.000000
   2.249500      0.000000
   2.250000      0.000000
   2.250500      0.000000
   2.251000      0.000000
   2.251500      0.000000
   2.252000      0.000000
   2.252500      0.000000
   2.253000      0.000000
   2.253500      0.000000
   2.254000      0.000000
   2.254500      0.000000
   2.255000      0.000000
   2.255500      0.000000
   2.256000      0.000000
   2.256500      0.000000
   2.257000      0.000000
   2.257500      0.000000
   2.258000      0.000000
   2.258500      0.000000
   2.259000      0.000000
   2.259500      0.000000
   2.260000      0.000000
   2.260500      0.000000
   2.261000      0.000000
   2.261500      0.000000
   2.262000      0.000000
   2.262500      0.000000
   2.263000      0.000000
   2.263500      0.000000
   2.264000      0.000000
   2.264500      0.000000
   2.265000      0.000000
   2.265500      0.000000
   2.266000      0.000000
   2.266500      0.000000
   2.267000      0.000000
   2.267500      0.000000
   2.268000      0.000000
   2.268500      0.000000
   2.269000      0.000000
   2.269500      0.000000
   2.270000      0.000000
   2.270500      0.000000
   2.271000      0.000000
   2.271500      0.000000
   2.272000      0.000000
   2.272500      0.000000
   2.273000      0.000000
   2.273500      0.000000
   2.274000      0.000000
   2.274500      0.000000
   2.275000      0.000000
   2.275500      0.000000
   2.276000      0.000000
   2.276500      0.000000
   2.277000      0.000000
   2.277500      0.000000
   2.278000      0.000000
   2.278500      0.000000
   2.279000      0.000000
   2.279500      0.000000
   2.280000      0.000000
   2.280500      0.000000
   2.281000      0.000000
   2.281500      0.000000
   2.282000      0.000000
   2.282500      0.000000
   2.283000      0.000000
   2.283500      0.000000
   2.284000      0.000000
   2.284500      0.000000
   2.285000      0.000000
   2.285500      0.000000
   2.286000      0.000000
   2.286500      0.000000
   2.287000      0.000000
   2.287500      0.000000
   2.288000      0.000000
   2.288500      0.000000
   2.289000      0.000000
   2.289500      0.000000
   2.290000      0.000000
   2.290500      0.000000
   2.291000      0.000000
   2.291500      0.000000
   2.292000      0.000000
   2.292500      0.000000
   2.293000      0.000000
   2.293500      0.000000
   2.294000      0.000000
   2.294500      0.000000
   2.295000      0.000000
   2.295500      0.000000
   2.296000      0.000000
   2.296500      0.000000
   2.297000      0.000000
   2.297500      0.000000
   2.298000      0.000000
   2.298500      0.000000
   2.299000      0.000000
   2.299500      0.000000
   2.300000      0.000000
   2.300500      0.000000
   2.301000      0.000000
   2.301500      0.000000
   2.302000      0.000000
   2.302500      0.000000
   2.303000      0.000000
   2.303500      0.000000
   2.304000      0.000000
   2.304500      0.000000
   2.305000      0.000000
   2.305500      0.000000
   2.306000      0.000000
   2.306500      0.000000
   2.307000      0.000000
   2.307500      0.000000
   2.308000      0.000000
   2.308500      0.000000
   2.309000      0.000000
   2.309500      0.000000
   2.310000      0.000000
   2.310500      0.000000
   2.311000      0.000000
   2.311500      0.000000
   2.312000      0.000000
   2.312500      0.000000
   2.313000      0.000000
   2.313500      0.000000
   2.314000      0.000000
   2.314500      0.000000
   2.315000      0.000000
   2.315500      0.000000
   2.316000      0.000000
   2.316500      0.000000
   2.317000      0.000000
   2.317500      0.000000
   2.318000      0.000000
   2.318500      0.000000
   2.319000      0.000000
   2.319500      0.000000
   2.320000      0.000000
   2.320500      0.000000
   2.321000      0.000000
   2.321500      0.000000
   2.322000      0.000000
   2.322500      0.000000
   2.323000      0.000000
   2.323500      0.000000
   2.324000      0.000000
   2.324500      0.000000
   2.325000      0.000000
   2.325500      0.000000
   2.326000      0.000000
   2.326500      0.000000
   2.327000      0.000000
   2.327500      0.000000
   2.328000      0.000000
   2.328500      0.000000
   2.329000      0.000000
   2.329500      0.000000
   2.330000      0.000000
   2.330500      0.000000
   2.331000      0.000000
   2.331500      0.000000
   2.332000      0.000000
   2.332500      0.000000
   2.333000      0.000000
   2.333500      0.000000
   2.334000      0.000000
   2.334500      0.000000
   2.335000      0.000000
   2.335500      0.000000
   2.336000      0.000000
   2.336500      0.000000
   2.337000      0.000000
   2.337500      0.000000
   2.338000      0.000000
   2.338500      0.000000
   2.339000      0.000000
   2.339500      0.000000
   2.340000      0.000000
   2.340500      0.000000
   2.341000      0.000000
   2.341500      0.000000
   2.342000      0.000000
   2.342500      0.000000
   2.343000      0.000000
   2.343500      0.000000
   2.344000      0.000000
   2.344500      0.000000
   2.345000      0.000000
   2.345500      0.000000
   2.346000      0.000000
   2.346500      0.000000
   2.347000      0.000000
   2.347500      0.000000
   2.348000      0.000000
   2.348500      0.000000
   2.349000      0.000000
   2.349500      0.000000
   2.350000      0.000000
   2.350500      0.000000
   2.351000      0.000000
   2.351500      0.000000
   2.352000      0.000000
   2.352500      0.000000
   2.353000      0.000000
   2.353500      0.000000
   2.354000      0.000000
   2.354500      0.000000
   2.355000      0.000000
   2.355500      0.000000
   2.356000      0.000000
   2.356500      0.000000
   2.357000      0.000000
   2.357500      0.000000
   2.358000      0.000000
   2.358500      0.000000
   2.359000      0.000000
   2.359500      0.000000
   2.360000      0.000000
   2.360500      0.000000
   2.361000      0.000000
   2.361500      0.000000
   2.362000      0.000000
   2.362500      0.000000
   2.363000      0.000000
   2.363500      0.000000
   2.364000      0.000000
   2.364500      0.000000
   2.365000      0.000000
   2.365500      0.000000
   2.366000      0.000000
   2.366500      0.000000
   2.367000      0.000000
   2.367500      0.000000
   2.368000      0.000000
   2.368500      0.000000
   2.369000      0.000000
   2.369500      0.000000
   2.370000      0.000000
   2.370500      0.000000
   2.371000      0.000000
   2.371500      0.000000
   2.372000      0.000000
   2.372500      0.000000
   2.373000      0.000000
   2.373500      0.000000
   2.374000      0.000000
   2.374500      0.000000
   2.375000      0.000000
   2.375500      0.000000
   2.376000      0.000000
   2.376500      0.000000
   2.377000      0.000000
   2.377500      0.000000
   2.378000      0.000000
   2.378500      0.000000
   2.379000      0.000000
   2.379500      0.000000
   2.380000      0.000000
   2.380500      0.000000
   2.381000      0.000000
   2.381500      0.000000
   2.382000      0.000000
   2.382500      0.000000
   2.383000      0.000000
   2.383500      0.000000
   2.384000      0.000000
   2.384500      0.000000
   2.385000      0.000000
   2.385500      0.000000
   2.386000      0.000000
   2.386500      0.000000
   2.387000      0.000000
   2.387500      0.000000
   2.388000      0.000000
   2.388500      0.000000
   2.389000      0.000000
   2.389500      0.000000
   2.390000      0.000000
   2.390500      0.000000
   2.391000      0.000000
   2.391500      0.000000
   2.392000      0.000000
   2.392500      0.000000
   2.393000      0.000000
   2.393500      0.000000
   2.394000      0.000000
   2.394500      0.000000
   2.395000      0.000000
   2.395500      0.000000
   2.396000      0.000000
   2.396500      0.000000
   2.397000      0.000000
   2.397500      0.000000
   2.398000      0.000000
   2.398500      0.000000
   2.399000      0.000000
   2.399500      0.000000
   2.400000      0.000000
   2.400500      0.000000
   2.401000      0.000000
   2.401500      0.000000
   2.402000      0.000000
   2.402500      0.000000
   2.403000      0.000000
   2.403500      0.000000
   2.404000      0.000000
   2.404500      0.000000
   2.405000      0.000000
   2.405500      0.000000
   2.406000      0.000000
   2.406500      0.000000
   2.407000      0.000000
   2.407500      0.000000
   2.408000      0.000000
   2.408500      0.000000
   2.409000      0.000000
   2.409500      0.000000
   2.410000      0.000000
   2.410500      0.000000
   2.411000      0.000000
   2.411500      0.000000
   2.412000      0.000000
   2.412500      0.000000
   2.413000      0.000000
   2.413500      0.000000
   2.414000      0.000000
   2.414500      0.000000
   2.415000      0.000000
   2.415500      0.000000
   2.416000      0.000000
   2.416500      0.000000
   2.417000      0.000000
   2.417500      0.000000
   2.418000      0.000000
   2.418500      0.000000
   2.419000      0.000000
   2.419500      0.000000
   2.420000      0.000000
   2.420500      0.000000
   2.421000      0.000000
   2.421500      0.000000
   2.422000      0.000000
   2.422500      0.000000
   2.423000      0.000000
   2.423500      0.000000
   2.424000      0.000000
   2.424500      0.000000
   2.425000      0.000000
   2.425500      0.000000
   2.426000      0.000000
   2.426500      0.000000
   2.427000      0.000000
   2.427500      0.000000
   2.428000      0.000000
   2.428500      0.000000
   2.429000      0.000000
   2.429500      0.000000
   2.430000      0.000000
   2.430500      0.000000
   2.431000      0.000000
   2.431500      0.000000
   2.432000      0.000000
   2.432500      0.000000
   2.433000      0.000000
   2.433500      0.000000
   2.434000      0.000000
   2.434500      0.000000
   2.435000      0.000000
   2.435500      0.000000
   2.436000      0.000000
   2.436500      0.000000
   2.437000      0.000000
   2.437500      0.000000
   2.438000      0.000000
   2.438500      0.000000
   2.439000      0.000000
   2.439500      0.000000
   2.440000      0.000000
   2.440500      0.000000
   2.441000      0.000000
   2.441500      0.000000
   2.442000      0.000000
   2.442500      0.000000
   2.443000      0.000000
   2.443500      0.000000
   2.444000      0.000000
   2.444500      0.000000
   2.445000      0.000000
   2.445500      0.000000
   2.446000      0.000000
   2.446500      0.000000
   2.447000      0.000000
   2.447500      0.000000
   2.448000      0.000000
   2.448500      0.000000
   2.449000      0.000000
   2.449500      0.000000
   2.450000      0.000000
   2.450500      0.000000
   2.451000      0.000000
   2.451500      0.000000
   2.452000      0.000000
   2.452500      0.000000
   2.453000      0.000000
   2.453500      0.000000
   2.454000      0.000000
   2.454500      0.000000
   2.455000      0.000000
   2.455500      0.000000
   2.456000      0.000000
   2.456500      0.000000
   2.457000      0.000000
   2.457500      0.000000
   2.458000      0.000000
   2.458500      0.000000
   2.459000      0.000000
   2.459500      0.000000
   2.460000      0.000000
   2.460500      0.000000
   2.461000      0.000000
   2.461500      0.000000
   2.462000      0.000000
   2.462500      0.000000
   2.463000      0.000000
   2.463500      0.000000
   2.464000      0.000000
   2.464500      0.000000
   2.465000      0.000000
   2.465500      0.000000
   2.466000      0.000000
   2.466500      0.000000
   2.467000      0.000000
   2.467500      0.000000
   2.468000      0.000000
   2.468500      0.000000
   2.469000      0.000000
   2.469500      0.000000
   2.470000      0.000000
   2.470500      0.000000
   2.471000      0.000000
   2.471500      0.000000
   2.472000      0.000000
   2.472500      0.000000
   2.473000      0.000000
   2.473500      0.000000
   2.474000      0.000000
   2.474500      0.000000
   2.475000      0.000000
   2.475500      0.000000
   2.476000      0.000000
   2.476500      0.000000
   2.477000      0.000000
   2.477500      0.000000
   2.478000      0.000000
   2.478500      0.000000
   2.479000      0.000000
   2.479500      0.000000
   2.480000      0.000000
   2.480500      0.000000
   2.481000      0.000000
   2.481500      0.000000
   2.482000      0.000000
   2.482500      0.000000
   2.483000      0.000000
   2.483500      0.000000
   2.484000      0.000000
   2.484500      0.000000
   2.485000      0.000000
   2.485500      0.000000
   2.486000      0.000000
   2.486500      0.000000
   2.487000      0.000000
   2.487500      0.000000
   2.488000      0.000000
   2.488500      0.000000
   2.489000      0.000000
   2.489500      0.000000
   2.490000      0.000000
   2.490500      0.000000
   2.491000      0.000000
   2.491500      0.000000
   2.492000      0.000000
   2.492500      0.000000
   2.493000      0.000000
   2.493500      0.000000
   2.494000      0.000000
   2.494500      0.000000
   2.495000      0.000000
   2.495500      0.000000
   2.496000      0.000000
   2.496500      0.000000
   2.497000      0.000000
   2.497500      0.000000
   2.498000      0.000000
   2.498500      0.000000
   2.499000      0.000000
   2.499500      0.000000
   2.500000      0.000000
   2.500500      0.000000
   2.501000      0.000000
   2.501500      0.000000
   2.502000      0.000000
   2.502500      0.000000
   2.503000      0.000000
   2.503500      0.000000
   2.504000      0.000000
   2.504500      0.000000
   2.505000      0.000000
   2.505500      0.000000
   2.506000      0.000000
   2.506500      0.000000
   2.507000      0.000000
   2.507500      0.000000
   2.508000      0.000000
   2.508500      0.000000
   2.509000      0.000000
   2.509500      0.000000
   2.510000      0.000000
   2.510500      0.000000
   2.511000      0.000000
   2.511500      0.000000
   2.512000      0.000000
   2.512500      0.000000
   2.513000      0.000000
   2.513500      0.000000
   2.514000      0.000000
   2.514500      0.000000
   2.515000      0.000000
   2.515500      0.000000
   2.516000      0.000000
   2.516500      0.000000
   2.517000      0.000000
   2.517500      0.000000
   2.518000      0.000000
   2.518500      0.000000
   2.519000      0.000000
   2.519500      0.000000
   2.520000      0.000000
   2.520500      0.000000
   2.521000      0.000000
   2.521500      0.000000
   2.522000      0.000000
   2.522500      0.000000
   2.523000      0.000000
   2.523500      0.000000
   2.524000      0.000000
   2.524500      0.000000
   2.525000      0.000000
   2.525500      0.000000
   2.526000      0.000000
   2.526500      0.000000
   2.527000      0.000000
   2.527500      0.000000
   2.528000      0.000000
   2.528500      0.000000
   2.529000      0.000000
   2.529500      0.000000
   2.530000      0.000000
   2.530500      0.000000
   2.531000      0.000000
   2.531500      0.000000
   2.532000      0.000000
   2.532500      0.000000
   2.533000      0.000000
   2.533500      0.000000
   2.534000      0.000000
   2.534500      0.000000
   2.535000      0.000000
   2.535500      0.000000
   2.536000      0.000000
   2.536500      0.000000
   2.537000      0.000000
   2.537500      0.000000
   2.538000      0.000000
   2.538500      0.000000
   2.539000      0.000000
   2.539500      0.000000
   2.540000      0.000000
   2.540500      0.000000
   2.541000      0.000000
   2.541500      0.000000
   2.542000      0.000000
   2.542500      0.000000
   2.543000      0.000000
   2.543500      0.000000
   2.544000      0.000000
   2.544500      0.000000
   2.545000      0.000000
   2.545500      0.000000
   2.546000      0.000000
   2.546500      0.000000
   2.547000      0.000000
   2.547500      0.000000
   2.548000      0.000000
   2.548500      0.000000
   2.549000      0.000000
   2.549500      0.000000
   2.550000      0.000000
   2.550500      0.000000
   2.551000      0.000000
   2.551500      0.000000
   2.552000      0.000000
   2.552500      0.000000
   2.553000      0.000000
   2.553500      0.000000
   2.554000      0.000000
   2.554500      0.000000
   2.555000      0.000000
   2.555500      0.000000
   2.556000      0.000000
   2.556500      0.000000
   2.557000      0.000000
   2.557500      0.000000
   2.558000      0.000000
   2.558500      0.000000
   2.559000      0.000000
   2.559500      0.000000
   2.560000      0.000000
   2.560500      0.000000
   2.561000      0.000000
   2.561500      0.000000
   2.562000      0.000000
   2.562500      0.000000
   2.563000      0.000000
   2.563500      0.000000
   2.564000      0.000000
   2.564500      0.000000
   2.565000      0.000000
   2.565500      0.000000
   2.566000      0.000000
   2.566500      0.000000
   2.567000      0.000000
   2.567500      0.000000
   2.568000      0.000000
   2.568500      0.000000
   2.569000      0.000000
   2.569500      0.000000
   2.570000      0.000000
   2.570500      0.000000
   2.571000      0.000000
   2.571500      0.000000
   2.572000      0.000000
   2.572500      0.000000
   2.573000      0.000000
   2.573500      0.000000
   2.574000      0.000000
   2.574500      0.000000
   2.575000      0.000000
   2.575500      0.000000
   2.576000      0.000000
   2.576500      0.000000
   2.577000      0.000000
   2.577500      0.000000
   2.578000      0.000000
   2.578500      0.000000
   2.579000      0.000000
   2.579500      0.000000
   2.580000      0.000000
   2.580500      0.000000
   2.581000      0.000000
   2.581500      0.000000
   2.582000      0.000000
   2.582500      0.000000
   2.583000      0.000000
   2.583500      0.000000
   2.584000      0.000000
   2.584500      0.000000
   2.585000      0.000000
   2.585500      0.000000
   2.586000      0.000000
   2.586500      0.000000
   2.587000      0.000000
   2.587500      0.000000
   2.588000      0.000000
   2.588500      0.000000
   2.589000      0.000000
   2.589500      0.000000
   2.590000      0.000000
   2.590500      0.000000
   2.591000      0.000000
   2.591500      0.000000
   2.592000      0.000000
   2.592500      0.000000
   2.593000      0.000000
   2.593500      0.000000
   2.594000      0.000000
   2.594500      0.000000
   2.595000      0.000000
   2.595500      0.000000
   2.596000      0.000000
   2.596500      0.000000
   2.597000      0.000000
   2.597500      0.000000
   2.598000      0.000000
   2.598500      0.000000
   2.599000      0.000000
   2.599500      0.000000
   2.600000      0.000000
   2.600500      0.000000
   2.601000      0.000001
   2.601500      0.000001
   2.602000      0.000001
   2.602500      0.000001
   2.603000      0.000001
   2.603500      0.000001
   2.604000      0.000001
   2.604500      0.000001
   2.605000      0.000001
   2.605500      0.000001
   2.606000      0.000001
   2.606500      0.000001
   2.607000      0.000001
   2.607500      0.000001
   2.608000      0.000001
   2.608500      0.000001
   2.609000      0.000001
   2.609500      0.000001
   2.610000      0.000001
   2.610500      0.000001
   2.611000      0.000001
   2.611500      0.000001
   2.612000      0.000001
   2.612500      0.000001
   2.613000      0.000001
   2.613500      0.000001
   2.614000      0.000001
   2.614500      0.000001
   2.615000      0.000002
   2.615500      0.000002
   2.616000      0.000002
   2.616500      0.000002
   2.617000      0.000002
   2.617500      0.000002
   2.618000      0.000002
   2.618500      0.000002
   2.619000      0.000002
   2.619500      0.000002
   2.620000      0.000002
   2.620500      0.000002
   2.621000      0.000002
   2.621500      0.000002
   2.622000      0.000002
   2.622500      0.000003
   2.623000      0.000003
   2.623500      0.000003
   2.624000      0.000003
   2.624500      0.000003
   2.625000      0.000003
   2.625500      0.000003
   2.626000      0.000003
   2.626500      0.000003
   2.627000      0.000003
   2.627500      0.000003
   2.628000      0.000003
   2.628500      0.000003
   2.629000      0.000003
   2.629500      0.000003
   2.630000      0.000003
   2.630500      0.000003
   2.631000      0.000003
   2.631500      0.000003
   2.632000      0.000003
   2.632500      0.000003
   2.633000      0.000003
   2.633500      0.000003
   2.634000      0.000004
   2.634500      0.000004
   2.635000      0.000004
   2.635500      0.000004
   2.636000      0.000004
   2.636500      0.000004
   2.637000      0.000004
   2.637500      0.000004
   2.638000      0.000004
   2.638500      0.000004
   2.639000      0.000004
   2.639500      0.000004
   2.640000      0.000004
   2.640500      0.000004
   2.641000      0.000004
   2.641500      0.000004
   2.642000      0.000004
   2.642500      0.000004
   2.643000      0.000004
   2.643500      0.000004
   2.644000      0.000004
   2.644500      0.000004
   2.645000      0.000004
   2.645500      0.000004
   2.646000      0.000004
   2.646500      0.000004
   2.647000      0.000004
   2.647500      0.000004
   2.648000      0.000004
   2.648500      0.000004
   2.649000      0.000004
   2.649500      0.000004
   2.650000      0.000004
   2.650500      0.000004
   2.651000      0.000004
   2.651500      0.000004
   2.652000      0.000004
   2.652500      0.000004
   2.653000      0.000004
   2.653500      0.000005
   2.654000      0.000005
   2.654500      0.000005
   2.655000      0.000005
   2.655500      0.000005
   2.656000      0.000005
   2.656500      0.000005
   2.657000      0.000005
   2.657500      0.000005
   2.658000      0.000005
   2.658500      0.000005
   2.659000      0.000005
   2.659500      0.000005
   2.660000      0.000005
   2.660500      0.000005
   2.661000      0.000006
   2.661500      0.000006
   2.662000      0.000006
   2.662500      0.000006
   2.663000      0.000006
   2.663500      0.000006
   2.664000      0.000006
   2.664500      0.000006
   2.665000      0.000006
   2.665500      0.000007
   2.666000      0.000007
   2.666500      0.000007
   2.667000      0.000007
   2.667500      0.000007
   2.668000      0.000007
   2.668500      0.000007
   2.669000      0.000008
   2.669500      0.000008
   2.670000      0.000008
   2.670500      0.000008
   2.671000      0.000008
   2.671500      0.000009
   2.672000      0.000009
   2.672500      0.000009
   2.673000      0.000009
   2.673500      0.000010
   2.674000      0.000010
   2.674500      0.000010
   2.675000      0.000010
   2.675500      0.000011
   2.676000      0.000011
   2.676500      0.000011
   2.677000      0.000012
   2.677500      0.000012
   2.678000      0.000013
   2.678500      0.000013
   2.679000      0.000013
   2.679500      0.000014
   2.680000      0.000014
   2.680500      0.000015
   2.681000      0.000015
   2.681500      0.000016
   2.682000      0.000017
   2.682500      0.000017
   2.683000      0.000018
   2.683500      0.000018
   2.684000      0.000019
   2.684500      0.000020
   2.685000      0.000021
   2.685500      0.000022
   2.686000      0.000023
   2.686500      0.000023
   2.687000      0.000025
   2.687500      0.000026
   2.688000      0.000027
   2.688500      0.000028
   2.689000      0.000029
   2.689500      0.000031
   2.690000      0.000032
   2.690500      0.000034
   2.691000      0.000035
   2.691500      0.000037
   2.692000      0.000039
   2.692500      0.000041
   2.693000      0.000043
   2.693500      0.000045
   2.694000      0.000048
   2.694500      0.000050
   2.695000      0.000053
   2.695500      0.000056
   2.696000      0.000059
   2.696500      0.000063
   2.697000      0.000067
   2.697500      0.000071
   2.698000      0.000075
   2.698500      0.000080
   2.699000      0.000085
   2.699500      0.000091
   2.700000      0.000097
   2.700500      0.000103
   2.701000      0.000111
   2.701500      0.000118
   2.702000      0.000127
   2.702500      0.000137
   2.703000      0.000147
   2.703500      0.000158
   2.704000      0.000171
   2.704500      0.000185
   2.705000      0.000201
   2.705500      0.000218
   2.706000      0.000237
   2.706500      0.000258
   2.707000      0.000282
   2.707500      0.000309
   2.708000      0.000340
   2.708500      0.000374
   2.709000      0.000413
   2.709500      0.000458
   2.710000      0.000509
   2.710500      0.000568
   2.711000      0.000635
   2.711500      0.000714
   2.712000      0.000806
   2.712500      0.000914
   2.713000      0.001041
   2.713500      0.001192
   2.714000      0.001374
   2.714500      0.001592
   2.715000      0.001857
   2.715500      0.002182
   2.716000      0.002582
   2.716500      0.003078
   2.717000      0.003696
   2.717500      0.004468
   2.718000      0.005428
   2.718500      0.006610
   2.719000      0.008026
   2.719500      0.009647
   2.720000      0.011361
   2.720500      0.012960
   2.721000      0.014172
   2.721500      0.014759
   2.722000      0.014622
   2.722500      0.013842
   2.723000      0.012635
   2.723500      0.011246
   2.724000      0.009867
   2.724500      0.008609
   2.725000      0.007514
   2.725500      0.006584
   2.726000      0.005805
   2.726500      0.005155
   2.727000      0.004611
   2.727500      0.004156
   2.728000      0.003772
   2.728500      0.003446
   2.729000      0.003169
   2.729500      0.002931
   2.730000      0.002726
   2.730500      0.002548
   2.731000      0.002394
   2.731500      0.002258
   2.732000      0.002139
   2.732500      0.002034
   2.733000      0.001942
   2.733500      0.001859
   2.734000      0.001786
   2.734500      0.001721
   2.735000      0.001663
   2.735500      0.001611
   2.736000      0.001564
   2.736500      0.001523
   2.737000      0.001486
   2.737500      0.001453
   2.738000      0.001424
   2.738500      0.001397
   2.739000      0.001374
   2.739500      0.001354
   2.740000      0.001336
   2.740500      0.001321
   2.741000      0.001308
   2.741500      0.001297
   2.742000      0.001288
   2.742500      0.001281
   2.743000      0.001276
   2.743500      0.001272
   2.744000      0.001270
   2.744500      0.001269
   2.745000      0.001271
   2.745500      0.001273
   2.746000      0.001277
   2.746500      0.001282
   2.747000      0.001289
   2.747500      0.001297
   2.748000      0.001307
   2.748500      0.001318
   2.749000      0.001330
   2.749500      0.001344
   2.750000      0.001359
   2.750500      0.001376
   2.751000      0.001394
   2.751500      0.001413
   2.752000      0.001435
   2.752500      0.001457
   2.753000      0.001481
   2.753500      0.001507
   2.754000      0.001535
   2.754500      0.001564
   2.755000      0.001595
   2.755500      0.001628
   2.756000      0.001663
   2.756500      0.001700
   2.757000      0.001739
   2.757500      0.001780
   2.758000      0.001823
   2.758500      0.001869
   2.759000      0.001918
   2.759500      0.001969
   2.760000      0.002023
   2.760500      0.002080
   2.761000      0.002140
   2.761500      0.002203
   2.762000      0.002269
   2.762500      0.002340
   2.763000      0.002414
   2.763500      0.002492
   2.764000      0.002574
   2.764500      0.002661
   2.765000      0.002753
   2.765500      0.002850
   2.766000      0.002952
   2.766500      0.003060
   2.767000      0.003174
   2.767500      0.003295
   2.768000      0.003422
   2.768500      0.003557
   2.769000      0.003700
   2.769500      0.003852
   2.770000      0.004012
   2.770500      0.004182
   2.771000      0.004362
   2.771500      0.004554
   2.772000      0.004757
   2.772500      0.004974
   2.773000      0.005203
   2.773500      0.005448
   2.774000      0.005708
   2.774500      0.005986
   2.775000      0.006282
   2.775500      0.006597
   2.776000      0.006934
   2.776500      0.007294
   2.777000      0.007678
   2.777500      0.008088
   2.778000      0.008527
   2.778500      0.008996
   2.779000      0.009498
   2.779500      0.010034
   2.780000      0.010607
   2.780500      0.011220
   2.781000      0.011873
   2.781500      0.012570
   2.782000      0.013312
   2.782500      0.014099
   2.783000      0.014933
   2.783500      0.015813
   2.784000      0.016739
   2.784500      0.017705
   2.785000      0.018709
   2.785500      0.019743
   2.786000      0.020797
   2.786500      0.021858
   2.787000      0.022911
   2.787500      0.023938
   2.788000      0.024914
   2.788500      0.025818
   2.789000      0.026622
   2.789500      0.027301
   2.790000      0.027831
   2.790500      0.028191
   2.791000      0.028366
   2.791500      0.028346
   2.792000      0.028132
   2.792500      0.027729
   2.793000      0.027151
   2.793500      0.026419
   2.794000      0.025556
   2.794500      0.024589
   2.795000      0.023545
   2.795500      0.022450
   2.796000      0.021328
   2.796500      0.020199
   2.797000      0.019081
   2.797500      0.017989
   2.798000      0.016932
   2.798500      0.015917
   2.799000      0.014952
   2.799500      0.014037
   2.800000      0.013175
