# author: Kieran Leschinski
# source: https://stsynphot.readthedocs.io/en/latest/stsynphot/data_hst.html
# description: Fudge factor that couldn't be attributed to any specific element
# date_created: 2019-11-19
# date_modified: 2019-11-19
# status: measured
# orig_filename: wfc3_ir_cor_004_syn.fits
# wavelength_unit: Angstrom
 wavelength  transmission   emissivity
      998.0           0.0          0.0
      999.0           0.0          0.0
     1000.0         1.139          0.0
     8180.0         1.139          0.0
     8360.0         1.179          0.0
     8540.0         1.174          0.0
     8720.0         1.145          0.0
     8900.0         1.213          0.0
     8910.0         1.212          0.0
     8920.0         1.211          0.0
     8930.0         1.211          0.0
     8940.0          1.21          0.0
     8950.0         1.209          0.0
     8960.0         1.209          0.0
     8970.0         1.208          0.0
     8980.0         1.208          0.0
     8990.0         1.207          0.0
     9000.0         1.206          0.0
     9010.0         1.206          0.0
     9020.0         1.205          0.0
     9030.0         1.205          0.0
     9040.0         1.204          0.0
     9050.0         1.203          0.0
     9060.0         1.203          0.0
     9070.0         1.202          0.0
     9080.0         1.202          0.0
     9090.0         1.201          0.0
     9100.0           1.2          0.0
     9110.0           1.2          0.0
     9120.0         1.199          0.0
     9130.0         1.199          0.0
     9140.0         1.198          0.0
     9150.0         1.198          0.0
     9160.0         1.197          0.0
     9170.0         1.197          0.0
     9180.0         1.196          0.0
     9190.0         1.196          0.0
     9200.0         1.195          0.0
     9210.0         1.195          0.0
     9220.0         1.194          0.0
     9230.0         1.194          0.0
     9240.0         1.193          0.0
     9250.0         1.193          0.0
     9260.0         1.192          0.0
     9270.0         1.192          0.0
     9280.0         1.191          0.0
     9290.0         1.191          0.0
     9300.0          1.19          0.0
     9310.0          1.19          0.0
     9320.0         1.189          0.0
     9330.0         1.189          0.0
     9340.0         1.188          0.0
     9350.0         1.188          0.0
     9360.0         1.187          0.0
     9370.0         1.187          0.0
     9380.0         1.186          0.0
     9390.0         1.186          0.0
     9400.0         1.186          0.0
     9410.0         1.185          0.0
     9420.0         1.185          0.0
     9430.0         1.184          0.0
     9440.0         1.184          0.0
     9450.0         1.183          0.0
     9460.0         1.183          0.0
     9470.0         1.183          0.0
     9480.0         1.182          0.0
     9490.0         1.182          0.0
     9500.0         1.182          0.0
     9510.0         1.181          0.0
     9520.0         1.181          0.0
     9530.0          1.18          0.0
     9540.0          1.18          0.0
     9550.0          1.18          0.0
     9560.0         1.179          0.0
     9570.0         1.179          0.0
     9580.0         1.179          0.0
     9590.0         1.178          0.0
     9600.0         1.178          0.0
     9610.0         1.178          0.0
     9620.0         1.177          0.0
     9630.0         1.177          0.0
     9640.0         1.177          0.0
     9650.0         1.176          0.0
     9660.0         1.176          0.0
     9670.0         1.176          0.0
     9680.0         1.175          0.0
     9690.0         1.175          0.0
     9700.0         1.175          0.0
     9710.0         1.174          0.0
     9720.0         1.174          0.0
     9730.0         1.174          0.0
     9740.0         1.173          0.0
     9750.0         1.173          0.0
     9760.0         1.173          0.0
     9770.0         1.173          0.0
     9780.0         1.172          0.0
     9790.0         1.172          0.0
     9800.0         1.172          0.0
     9810.0         1.172          0.0
     9820.0         1.171          0.0
     9830.0         1.171          0.0
     9840.0         1.171          0.0
     9850.0         1.171          0.0
     9860.0          1.17          0.0
     9870.0          1.17          0.0
     9880.0          1.17          0.0
     9890.0          1.17          0.0
     9900.0         1.169          0.0
     9910.0         1.169          0.0
     9920.0         1.169          0.0
     9930.0         1.169          0.0
     9940.0         1.169          0.0
     9950.0         1.168          0.0
     9960.0         1.168          0.0
     9970.0         1.168          0.0
     9980.0         1.168          0.0
     9990.0         1.168          0.0
    10000.0         1.167          0.0
    10010.0         1.167          0.0
    10020.0         1.167          0.0
    10030.0         1.167          0.0
    10040.0         1.167          0.0
    10050.0         1.166          0.0
    10060.0         1.166          0.0
    10070.0         1.166          0.0
    10080.0         1.166          0.0
    10090.0         1.166          0.0
    10100.0         1.166          0.0
    10110.0         1.166          0.0
    10120.0         1.165          0.0
    10130.0         1.165          0.0
    10140.0         1.165          0.0
    10150.0         1.165          0.0
    10160.0         1.165          0.0
    10170.0         1.165          0.0
    10180.0         1.165          0.0
    10190.0         1.164          0.0
    10200.0         1.164          0.0
    10210.0         1.164          0.0
    10220.0         1.164          0.0
    10230.0         1.164          0.0
    10240.0         1.164          0.0
    10250.0         1.164          0.0
    10260.0         1.164          0.0
    10270.0         1.164          0.0
    10280.0         1.164          0.0
    10290.0         1.163          0.0
    10300.0         1.163          0.0
    10310.0         1.163          0.0
    10320.0         1.163          0.0
    10330.0         1.163          0.0
    10340.0         1.163          0.0
    10350.0         1.163          0.0
    10360.0         1.163          0.0
    10370.0         1.163          0.0
    10380.0         1.163          0.0
    10390.0         1.163          0.0
    10400.0         1.163          0.0
    10410.0         1.163          0.0
    10420.0         1.163          0.0
    10430.0         1.163          0.0
    10440.0         1.163          0.0
    10450.0         1.163          0.0
    10460.0         1.162          0.0
    10470.0         1.162          0.0
    10480.0         1.162          0.0
    10490.0         1.162          0.0
    10500.0         1.162          0.0
    10510.0         1.162          0.0
    10520.0         1.162          0.0
    10530.0         1.162          0.0
    10540.0         1.162          0.0
    10550.0         1.162          0.0
    10560.0         1.162          0.0
    10570.0         1.162          0.0
    10580.0         1.162          0.0
    10590.0         1.162          0.0
    10600.0         1.162          0.0
    10610.0         1.162          0.0
    10620.0         1.162          0.0
    10630.0         1.162          0.0
    10640.0         1.162          0.0
    10650.0         1.162          0.0
    10660.0         1.162          0.0
    10670.0         1.162          0.0
    10680.0         1.162          0.0
    10690.0         1.163          0.0
    10700.0         1.163          0.0
    10710.0         1.163          0.0
    10720.0         1.163          0.0
    10730.0         1.163          0.0
    10740.0         1.163          0.0
    10750.0         1.163          0.0
    10760.0         1.163          0.0
    10770.0         1.163          0.0
    10780.0         1.163          0.0
    10790.0         1.163          0.0
    10800.0         1.163          0.0
    10810.0         1.163          0.0
    10820.0         1.163          0.0
    10830.0         1.163          0.0
    10840.0         1.163          0.0
    10850.0         1.163          0.0
    10860.0         1.163          0.0
    10870.0         1.164          0.0
    10880.0         1.164          0.0
    10890.0         1.164          0.0
    10900.0         1.164          0.0
    10910.0         1.164          0.0
    10920.0         1.164          0.0
    10930.0         1.164          0.0
    10940.0         1.164          0.0
    10950.0         1.164          0.0
    10960.0         1.164          0.0
    10970.0         1.164          0.0
    10980.0         1.165          0.0
    10990.0         1.165          0.0
    11000.0         1.165          0.0
    11010.0         1.165          0.0
    11020.0         1.165          0.0
    11030.0         1.165          0.0
    11040.0         1.165          0.0
    11050.0         1.165          0.0
    11060.0         1.165          0.0
    11070.0         1.166          0.0
    11080.0         1.166          0.0
    11090.0         1.166          0.0
    11100.0         1.166          0.0
    11110.0         1.166          0.0
    11120.0         1.166          0.0
    11130.0         1.166          0.0
    11140.0         1.166          0.0
    11150.0         1.167          0.0
    11160.0         1.167          0.0
    11170.0         1.167          0.0
    11180.0         1.167          0.0
    11190.0         1.167          0.0
    11200.0         1.167          0.0
    11210.0         1.168          0.0
    11220.0         1.168          0.0
    11230.0         1.168          0.0
    11240.0         1.168          0.0
    11250.0         1.168          0.0
    11260.0         1.168          0.0
    11270.0         1.168          0.0
    11280.0         1.169          0.0
    11290.0         1.169          0.0
    11300.0         1.169          0.0
    11310.0         1.169          0.0
    11320.0         1.169          0.0
    11330.0         1.169          0.0
    11340.0          1.17          0.0
    11350.0          1.17          0.0
    11360.0          1.17          0.0
    11370.0          1.17          0.0
    11380.0          1.17          0.0
    11390.0         1.171          0.0
    11400.0         1.171          0.0
    11410.0         1.171          0.0
    11420.0         1.171          0.0
    11430.0         1.171          0.0
    11440.0         1.171          0.0
    11450.0         1.172          0.0
    11460.0         1.172          0.0
    11470.0         1.172          0.0
    11480.0         1.172          0.0
    11490.0         1.172          0.0
    11500.0         1.173          0.0
    11510.0         1.173          0.0
    11520.0         1.173          0.0
    11530.0         1.173          0.0
    11540.0         1.173          0.0
    11550.0         1.174          0.0
    11560.0         1.174          0.0
    11570.0         1.174          0.0
    11580.0         1.174          0.0
    11590.0         1.174          0.0
    11600.0         1.175          0.0
    11610.0         1.175          0.0
    11620.0         1.175          0.0
    11630.0         1.175          0.0
    11640.0         1.176          0.0
    11650.0         1.176          0.0
    11660.0         1.176          0.0
    11670.0         1.176          0.0
    11680.0         1.176          0.0
    11690.0         1.177          0.0
    11700.0         1.177          0.0
    11710.0         1.177          0.0
    11720.0         1.177          0.0
    11730.0         1.178          0.0
    11740.0         1.178          0.0
    11750.0         1.178          0.0
    11760.0         1.178          0.0
    11770.0         1.178          0.0
    11780.0         1.179          0.0
    11790.0         1.179          0.0
    11800.0         1.179          0.0
    11810.0         1.179          0.0
    11820.0          1.18          0.0
    11830.0          1.18          0.0
    11840.0          1.18          0.0
    11850.0          1.18          0.0
    11860.0         1.181          0.0
    11870.0         1.181          0.0
    11880.0         1.181          0.0
    11890.0         1.181          0.0
    11900.0         1.182          0.0
    11910.0         1.182          0.0
    11920.0         1.182          0.0
    11930.0         1.182          0.0
    11940.0         1.182          0.0
    11950.0         1.183          0.0
    11960.0         1.183          0.0
    11970.0         1.183          0.0
    11980.0         1.183          0.0
    11990.0         1.184          0.0
    12000.0         1.184          0.0
    12010.0         1.184          0.0
    12020.0         1.184          0.0
    12030.0         1.185          0.0
    12040.0         1.185          0.0
    12050.0         1.185          0.0
    12060.0         1.185          0.0
    12070.0         1.186          0.0
    12080.0         1.186          0.0
    12090.0         1.186          0.0
    12100.0         1.186          0.0
    12110.0         1.187          0.0
    12120.0         1.187          0.0
    12130.0         1.187          0.0
    12140.0         1.187          0.0
    12150.0         1.188          0.0
    12160.0         1.188          0.0
    12170.0         1.188          0.0
    12180.0         1.188          0.0
    12190.0         1.189          0.0
    12200.0         1.189          0.0
    12210.0         1.189          0.0
    12220.0          1.19          0.0
    12230.0          1.19          0.0
    12240.0          1.19          0.0
    12250.0          1.19          0.0
    12260.0         1.191          0.0
    12270.0         1.191          0.0
    12280.0         1.191          0.0
    12290.0         1.191          0.0
    12300.0         1.192          0.0
    12310.0         1.192          0.0
    12320.0         1.192          0.0
    12330.0         1.192          0.0
    12340.0         1.193          0.0
    12350.0         1.193          0.0
    12360.0         1.193          0.0
    12370.0         1.193          0.0
    12380.0         1.194          0.0
    12390.0         1.194          0.0
    12400.0         1.194          0.0
    12410.0         1.194          0.0
    12420.0         1.195          0.0
    12430.0         1.195          0.0
    12440.0         1.195          0.0
    12450.0         1.195          0.0
    12460.0         1.196          0.0
    12470.0         1.196          0.0
    12480.0         1.196          0.0
    12490.0         1.196          0.0
    12500.0         1.197          0.0
    12510.0         1.197          0.0
    12520.0         1.197          0.0
    12530.0         1.197          0.0
    12540.0         1.198          0.0
    12550.0         1.198          0.0
    12560.0         1.198          0.0
    12570.0         1.199          0.0
    12580.0         1.199          0.0
    12590.0         1.199          0.0
    12600.0         1.199          0.0
    12610.0           1.2          0.0
    12620.0           1.2          0.0
    12630.0           1.2          0.0
    12640.0           1.2          0.0
    12650.0         1.201          0.0
    12660.0         1.201          0.0
    12670.0         1.201          0.0
    12680.0         1.201          0.0
    12690.0         1.202          0.0
    12700.0         1.202          0.0
    12710.0         1.202          0.0
    12720.0         1.202          0.0
    12730.0         1.203          0.0
    12740.0         1.203          0.0
    12750.0         1.203          0.0
    12760.0         1.203          0.0
    12770.0         1.203          0.0
    12780.0         1.204          0.0
    12790.0         1.204          0.0
    12800.0         1.204          0.0
    12810.0         1.204          0.0
    12820.0         1.205          0.0
    12830.0         1.205          0.0
    12840.0         1.205          0.0
    12850.0         1.205          0.0
    12860.0         1.206          0.0
    12870.0         1.206          0.0
    12880.0         1.206          0.0
    12890.0         1.206          0.0
    12900.0         1.207          0.0
    12910.0         1.207          0.0
    12920.0         1.207          0.0
    12930.0         1.207          0.0
    12940.0         1.208          0.0
    12950.0         1.208          0.0
    12960.0         1.208          0.0
    12970.0         1.208          0.0
    12980.0         1.208          0.0
    12990.0         1.209          0.0
    13000.0         1.209          0.0
    13010.0         1.209          0.0
    13020.0         1.209          0.0
    13030.0          1.21          0.0
    13040.0          1.21          0.0
    13050.0          1.21          0.0
    13060.0          1.21          0.0
    13070.0          1.21          0.0
    13080.0         1.211          0.0
    13090.0         1.211          0.0
    13100.0         1.211          0.0
    13110.0         1.211          0.0
    13120.0         1.211          0.0
    13130.0         1.212          0.0
    13140.0         1.212          0.0
    13150.0         1.212          0.0
    13160.0         1.212          0.0
    13170.0         1.213          0.0
    13180.0         1.213          0.0
    13190.0         1.213          0.0
    13200.0         1.213          0.0
    13210.0         1.213          0.0
    13220.0         1.214          0.0
    13230.0         1.214          0.0
    13240.0         1.214          0.0
    13250.0         1.214          0.0
    13260.0         1.214          0.0
    13270.0         1.214          0.0
    13280.0         1.215          0.0
    13290.0         1.215          0.0
    13300.0         1.215          0.0
    13310.0         1.215          0.0
    13320.0         1.215          0.0
    13330.0         1.216          0.0
    13340.0         1.216          0.0
    13350.0         1.216          0.0
    13360.0         1.216          0.0
    13370.0         1.216          0.0
    13380.0         1.216          0.0
    13390.0         1.217          0.0
    13400.0         1.217          0.0
    13410.0         1.217          0.0
    13420.0         1.217          0.0
    13430.0         1.217          0.0
    13440.0         1.217          0.0
    13450.0         1.218          0.0
    13460.0         1.218          0.0
    13470.0         1.218          0.0
    13480.0         1.218          0.0
    13490.0         1.218          0.0
    13500.0         1.218          0.0
    13510.0         1.219          0.0
    13520.0         1.219          0.0
    13530.0         1.219          0.0
    13540.0         1.219          0.0
    13550.0         1.219          0.0
    13560.0         1.219          0.0
    13570.0         1.219          0.0
    13580.0          1.22          0.0
    13590.0          1.22          0.0
    13600.0          1.22          0.0
    13610.0          1.22          0.0
    13620.0          1.22          0.0
    13630.0          1.22          0.0
    13640.0          1.22          0.0
    13650.0          1.22          0.0
    13660.0         1.221          0.0
    13670.0         1.221          0.0
    13680.0         1.221          0.0
    13690.0         1.221          0.0
    13700.0         1.221          0.0
    13710.0         1.221          0.0
    13720.0         1.221          0.0
    13730.0         1.221          0.0
    13740.0         1.221          0.0
    13750.0         1.222          0.0
    13760.0         1.222          0.0
    13770.0         1.222          0.0
    13780.0         1.222          0.0
    13790.0         1.222          0.0
    13800.0         1.222          0.0
    13810.0         1.222          0.0
    13820.0         1.222          0.0
    13830.0         1.222          0.0
    13840.0         1.222          0.0
    13850.0         1.222          0.0
    13860.0         1.223          0.0
    13870.0         1.223          0.0
    13880.0         1.223          0.0
    13890.0         1.223          0.0
    13900.0         1.223          0.0
    13910.0         1.223          0.0
    13920.0         1.223          0.0
    13930.0         1.223          0.0
    13940.0         1.223          0.0
    13950.0         1.223          0.0
    13960.0         1.223          0.0
    13970.0         1.223          0.0
    13980.0         1.223          0.0
    13990.0         1.223          0.0
    14000.0         1.223          0.0
    14010.0         1.223          0.0
    14020.0         1.223          0.0
    14030.0         1.223          0.0
    14040.0         1.223          0.0
    14050.0         1.223          0.0
    14060.0         1.223          0.0
    14070.0         1.223          0.0
    14080.0         1.224          0.0
    14090.0         1.224          0.0
    14100.0         1.224          0.0
    14110.0         1.224          0.0
    14120.0         1.224          0.0
    14130.0         1.224          0.0
    14140.0         1.224          0.0
    14150.0         1.224          0.0
    14160.0         1.224          0.0
    14170.0         1.224          0.0
    14180.0         1.224          0.0
    14190.0         1.224          0.0
    14200.0         1.223          0.0
    14210.0         1.223          0.0
    14220.0         1.223          0.0
    14230.0         1.223          0.0
    14240.0         1.223          0.0
    14250.0         1.223          0.0
    14260.0         1.223          0.0
    14270.0         1.223          0.0
    14280.0         1.223          0.0
    14290.0         1.223          0.0
    14300.0         1.223          0.0
    14310.0         1.223          0.0
    14320.0         1.223          0.0
    14330.0         1.223          0.0
    14340.0         1.223          0.0
    14350.0         1.223          0.0
    14360.0         1.223          0.0
    14370.0         1.223          0.0
    14380.0         1.223          0.0
    14390.0         1.223          0.0
    14400.0         1.222          0.0
    14410.0         1.222          0.0
    14420.0         1.222          0.0
    14430.0         1.222          0.0
    14440.0         1.222          0.0
    14450.0         1.222          0.0
    14460.0         1.222          0.0
    14470.0         1.222          0.0
    14480.0         1.222          0.0
    14490.0         1.222          0.0
    14500.0         1.222          0.0
    14510.0         1.221          0.0
    14520.0         1.221          0.0
    14530.0         1.221          0.0
    14540.0         1.221          0.0
    14550.0         1.221          0.0
    14560.0         1.221          0.0
    14570.0         1.221          0.0
    14580.0          1.22          0.0
    14590.0          1.22          0.0
    14600.0          1.22          0.0
    14610.0          1.22          0.0
    14620.0          1.22          0.0
    14630.0          1.22          0.0
    14640.0          1.22          0.0
    14650.0         1.219          0.0
    14660.0         1.219          0.0
    14670.0         1.219          0.0
    14680.0         1.219          0.0
    14690.0         1.219          0.0
    14700.0         1.219          0.0
    14710.0         1.218          0.0
    14720.0         1.218          0.0
    14730.0         1.218          0.0
    14740.0         1.218          0.0
    14750.0         1.218          0.0
    14760.0         1.217          0.0
    14770.0         1.217          0.0
    14780.0         1.217          0.0
    14790.0         1.217          0.0
    14800.0         1.216          0.0
    14810.0         1.216          0.0
    14820.0         1.216          0.0
    14830.0         1.216          0.0
    14840.0         1.215          0.0
    14850.0         1.215          0.0
    14860.0         1.215          0.0
    14870.0         1.215          0.0
    14880.0         1.214          0.0
    14890.0         1.214          0.0
    14900.0         1.214          0.0
    14910.0         1.214          0.0
    14920.0         1.213          0.0
    14930.0         1.213          0.0
    14940.0         1.213          0.0
    14950.0         1.213          0.0
    14960.0         1.212          0.0
    14970.0         1.212          0.0
    14980.0         1.212          0.0
    14990.0         1.211          0.0
    15000.0         1.211          0.0
    15010.0         1.211          0.0
    15020.0          1.21          0.0
    15030.0          1.21          0.0
    15040.0          1.21          0.0
    15050.0         1.209          0.0
    15060.0         1.209          0.0
    15070.0         1.209          0.0
    15080.0         1.208          0.0
    15090.0         1.208          0.0
    15100.0         1.208          0.0
    15110.0         1.207          0.0
    15120.0         1.207          0.0
    15130.0         1.207          0.0
    15140.0         1.206          0.0
    15150.0         1.206          0.0
    15160.0         1.206          0.0
    15170.0         1.205          0.0
    15180.0         1.205          0.0
    15190.0         1.204          0.0
    15200.0         1.204          0.0
    15210.0         1.204          0.0
    15220.0         1.203          0.0
    15230.0         1.203          0.0
    15240.0         1.202          0.0
    15250.0         1.202          0.0
    15260.0         1.202          0.0
    15270.0         1.201          0.0
    15280.0         1.201          0.0
    15290.0           1.2          0.0
    15300.0           1.2          0.0
    15310.0         1.199          0.0
    15320.0         1.199          0.0
    15330.0         1.198          0.0
    15340.0         1.198          0.0
    15350.0         1.197          0.0
    15360.0         1.197          0.0
    15370.0         1.197          0.0
    15380.0         1.196          0.0
    15390.0         1.196          0.0
    15400.0         1.195          0.0
    15410.0         1.195          0.0
    15420.0         1.194          0.0
    15430.0         1.194          0.0
    15440.0         1.193          0.0
    15450.0         1.193          0.0
    15460.0         1.192          0.0
    15470.0         1.191          0.0
    15480.0         1.191          0.0
    15490.0          1.19          0.0
    15500.0          1.19          0.0
    15510.0         1.189          0.0
    15520.0         1.189          0.0
    15530.0         1.188          0.0
    15540.0         1.188          0.0
    15550.0         1.187          0.0
    15560.0         1.186          0.0
    15570.0         1.186          0.0
    15580.0         1.185          0.0
    15590.0         1.185          0.0
    15600.0         1.184          0.0
    15610.0         1.184          0.0
    15620.0         1.183          0.0
    15630.0         1.182          0.0
    15640.0         1.182          0.0
    15650.0         1.181          0.0
    15660.0          1.18          0.0
    15670.0          1.18          0.0
    15680.0         1.179          0.0
    15690.0         1.179          0.0
    15700.0         1.178          0.0
    15710.0         1.177          0.0
    15720.0         1.177          0.0
    15730.0         1.176          0.0
    15740.0         1.175          0.0
    15750.0         1.175          0.0
    15760.0         1.174          0.0
    15770.0         1.173          0.0
    15780.0         1.172          0.0
    15790.0         1.172          0.0
    15800.0         1.171          0.0
    15810.0          1.17          0.0
    15820.0          1.17          0.0
    15830.0         1.169          0.0
    15840.0         1.168          0.0
    15850.0         1.167          0.0
    15860.0         1.167          0.0
    15870.0         1.166          0.0
    15880.0         1.165          0.0
    15890.0         1.164          0.0
    15900.0         1.164          0.0
    15910.0         1.163          0.0
    15920.0         1.162          0.0
    15930.0         1.161          0.0
    15940.0          1.16          0.0
    15950.0          1.16          0.0
    15960.0         1.159          0.0
    15970.0         1.158          0.0
    15980.0         1.157          0.0
    15990.0         1.156          0.0
    16000.0         1.156          0.0
    16010.0         1.155          0.0
    16020.0         1.154          0.0
    16030.0         1.153          0.0
    16040.0         1.152          0.0
    16050.0         1.151          0.0
    16060.0         1.151          0.0
    16070.0          1.15          0.0
    16080.0         1.149          0.0
    16090.0         1.148          0.0
    16100.0         1.147          0.0
    16110.0         1.146          0.0
    16120.0         1.145          0.0
    16130.0         1.144          0.0
    16140.0         1.143          0.0
    16150.0         1.142          0.0
    16160.0         1.142          0.0
    16170.0         1.141          0.0
    16180.0          1.14          0.0
    16190.0         1.139          0.0
    16200.0         1.138          0.0
    16210.0         1.137          0.0
    16220.0         1.136          0.0
    16230.0         1.135          0.0
    16240.0         1.134          0.0
    16250.0         1.133          0.0
    16260.0         1.132          0.0
    16270.0         1.131          0.0
    16280.0          1.13          0.0
    16290.0         1.129          0.0
    16300.0         1.128          0.0
    16310.0         1.127          0.0
    16320.0         1.126          0.0
    16330.0         1.125          0.0
    16340.0         1.124          0.0
    16350.0         1.123          0.0
    16360.0         1.122          0.0
    16370.0          1.12          0.0
    16380.0         1.119          0.0
    16390.0         1.118          0.0
    16400.0         1.117          0.0
    16410.0         1.116          0.0
    16420.0         1.115          0.0
    16430.0         1.114          0.0
    16440.0         1.113          0.0
    16450.0         1.112          0.0
    16460.0          1.11          0.0
    16470.0         1.109          0.0
    16480.0         1.108          0.0
    16490.0         1.107          0.0
    16500.0         1.106          0.0
    16510.0         1.105          0.0
    16520.0         1.104          0.0
    16530.0         1.102          0.0
    16540.0         1.101          0.0
    16550.0           1.1          0.0
    16560.0         1.099          0.0
    16570.0         1.098          0.0
    16580.0         1.096          0.0
    16590.0         1.095          0.0
    16600.0         1.094          0.0
    16610.0         1.093          0.0
    16620.0         1.091          0.0
    16630.0          1.09          0.0
    16640.0         1.089          0.0
    16650.0         1.088          0.0
    16660.0         1.086          0.0
    16670.0         1.085          0.0
    16680.0         1.084          0.0
    16690.0         1.082          0.0
    16700.0         1.081          0.0
    16710.0          1.08          0.0
    16720.0         1.078          0.0
    16730.0         1.077          0.0
    16740.0         1.076          0.0
    16750.0         1.074          0.0
    16760.0         1.073          0.0
    16770.0         1.072          0.0
    16780.0          1.07          0.0
    16790.0         1.069          0.0
    16800.0         1.067          0.0
    16810.0         1.066          0.0
    16820.0         1.065          0.0
    16830.0         1.063          0.0
    16840.0         1.062          0.0
    16850.0          1.06          0.0
    16860.0         1.059          0.0
    16870.0         1.057          0.0
    16880.0         1.056          0.0
    16890.0         1.055          0.0
    16900.0         1.053          0.0
    16910.0         1.052          0.0
    16920.0          1.05          0.0
    16930.0         1.049          0.0
    16940.0         1.047          0.0
    16950.0         1.046          0.0
    16960.0         1.044          0.0
    16970.0         1.042          0.0
    16980.0         1.041          0.0
    16990.0         1.039          0.0
    17000.0         1.038          0.0
    17010.0         1.036          0.0
    17020.0         1.035          0.0
    17030.0         1.033          0.0
    17040.0         1.031          0.0
    17050.0          1.03          0.0
    17060.0         1.028          0.0
    17070.0         1.027          0.0
    17080.0         1.025          0.0
    17090.0         1.023          0.0
    17100.0         1.022          0.0
    17110.0          1.02          0.0
    17120.0         1.018          0.0
    17130.0         1.017          0.0
    17140.0         1.015          0.0
    17150.0         1.013          0.0
    17160.0         1.012          0.0
    17170.0          1.01          0.0
    17180.0         1.008          0.0
    17190.0         1.007          0.0
    17200.0         1.005          0.0
    17210.0         1.003          0.0
    17220.0         1.001          0.0
    17230.0           1.0          0.0
    17240.0         0.998          0.0
    17250.0         0.996          0.0
    17260.0         0.994          0.0
    17270.0         0.992          0.0
    17280.0         0.991          0.0
    17290.0         0.989          0.0
    17300.0         0.987          0.0
    17310.0         0.985          0.0
    17320.0         0.983          0.0
    17330.0         0.981          0.0
    17340.0         0.979          0.0
    17350.0         0.978          0.0
    17360.0         0.976          0.0
    17370.0         0.974          0.0
    17380.0         0.972          0.0
    17390.0          0.97          0.0
    17400.0         0.968          0.0
    17410.0         0.966          0.0
    17420.0         0.964          0.0
    17430.0         0.962          0.0
    17440.0          0.96          0.0
    17450.0         0.958          0.0
    17460.0         0.956          0.0
    17470.0         0.954          0.0
    17480.0         0.952          0.0
    17490.0          0.95          0.0
    17500.0         0.948          0.0
    17510.0         0.946          0.0
    17520.0         0.944          0.0
    17530.0         0.942          0.0
    17540.0          0.94          0.0
    17550.0         0.938          0.0
    17560.0         0.936          0.0
    17570.0         0.934          0.0
    17580.0         0.932          0.0
    17590.0          0.93          0.0
    17600.0         0.927          0.0
    17610.0         0.925          0.0
    17620.0         0.923          0.0
    17630.0         0.921          0.0
    17640.0         0.919          0.0
    17650.0         0.917          0.0
    17660.0         0.914          0.0
    17670.0         0.912          0.0
    17680.0          0.91          0.0
    17690.0         0.908          0.0
    17700.0         0.905          0.0
    17710.0         0.903          0.0
    17720.0         0.901          0.0
    17730.0         0.899          0.0
    17740.0         0.896          0.0
    17750.0         0.894          0.0
    17760.0         0.892          0.0
    17770.0          0.89          0.0
    17780.0         0.887          0.0
    17790.0         0.885          0.0
    17800.0         0.883          0.0
    17810.0          0.88          0.0
    17820.0         0.878          0.0
    17830.0         0.875          0.0
    17840.0         0.873          0.0
    17850.0         0.871          0.0
    17860.0         0.868          0.0
    17870.0         0.866          0.0
    17880.0         0.863          0.0
    17890.0         0.861          0.0
    17900.0         0.858          0.0
    17910.0         0.856          0.0
    17920.0         0.853          0.0
    17930.0         0.851          0.0
    17940.0         0.848          0.0
    17950.0         0.846          0.0
    17960.0         0.843          0.0
    17970.0         0.841          0.0
    17980.0         0.838          0.0
    17990.0         0.836          0.0
    18000.0         0.833          0.0
    20000.0         0.833          0.0
    20001.0           0.0          0.0
    20002.0           0.0          0.0
